# E (eV)   ldos(E)   pdos(E)   
  -6.059  0.681E-06  0.681E-06
  -6.049  0.106E-05  0.106E-05
  -6.039  0.164E-05  0.164E-05
  -6.029  0.252E-05  0.252E-05
  -6.019  0.381E-05  0.381E-05
  -6.009  0.572E-05  0.572E-05
  -5.999  0.849E-05  0.849E-05
  -5.989  0.125E-04  0.125E-04
  -5.979  0.182E-04  0.182E-04
  -5.969  0.262E-04  0.262E-04
  -5.959  0.374E-04  0.374E-04
  -5.949  0.528E-04  0.528E-04
  -5.939  0.739E-04  0.739E-04
  -5.929  0.102E-03  0.102E-03
  -5.919  0.141E-03  0.141E-03
  -5.909  0.191E-03  0.191E-03
  -5.899  0.258E-03  0.258E-03
  -5.889  0.344E-03  0.344E-03
  -5.879  0.455E-03  0.455E-03
  -5.869  0.595E-03  0.595E-03
  -5.859  0.773E-03  0.773E-03
  -5.849  0.994E-03  0.994E-03
  -5.839  0.127E-02  0.127E-02
  -5.829  0.160E-02  0.160E-02
  -5.819  0.200E-02  0.200E-02
  -5.809  0.249E-02  0.249E-02
  -5.799  0.306E-02  0.306E-02
  -5.789  0.373E-02  0.373E-02
  -5.779  0.451E-02  0.451E-02
  -5.769  0.541E-02  0.541E-02
  -5.759  0.644E-02  0.644E-02
  -5.749  0.759E-02  0.759E-02
  -5.739  0.889E-02  0.889E-02
  -5.729  0.103E-01  0.103E-01
  -5.719  0.119E-01  0.119E-01
  -5.709  0.136E-01  0.136E-01
  -5.699  0.155E-01  0.155E-01
  -5.689  0.175E-01  0.175E-01
  -5.679  0.196E-01  0.196E-01
  -5.669  0.218E-01  0.218E-01
  -5.659  0.241E-01  0.241E-01
  -5.649  0.265E-01  0.265E-01
  -5.639  0.289E-01  0.289E-01
  -5.629  0.314E-01  0.314E-01
  -5.619  0.340E-01  0.340E-01
  -5.609  0.365E-01  0.365E-01
  -5.599  0.391E-01  0.391E-01
  -5.589  0.416E-01  0.416E-01
  -5.579  0.441E-01  0.441E-01
  -5.569  0.466E-01  0.466E-01
  -5.559  0.490E-01  0.490E-01
  -5.549  0.514E-01  0.514E-01
  -5.539  0.537E-01  0.537E-01
  -5.529  0.559E-01  0.559E-01
  -5.519  0.580E-01  0.580E-01
  -5.509  0.601E-01  0.601E-01
  -5.499  0.620E-01  0.620E-01
  -5.489  0.639E-01  0.639E-01
  -5.479  0.657E-01  0.657E-01
  -5.469  0.674E-01  0.674E-01
  -5.459  0.690E-01  0.690E-01
  -5.449  0.706E-01  0.706E-01
  -5.439  0.720E-01  0.720E-01
  -5.429  0.735E-01  0.735E-01
  -5.419  0.748E-01  0.748E-01
  -5.409  0.761E-01  0.761E-01
  -5.399  0.774E-01  0.774E-01
  -5.389  0.787E-01  0.787E-01
  -5.379  0.799E-01  0.799E-01
  -5.369  0.812E-01  0.812E-01
  -5.359  0.824E-01  0.824E-01
  -5.349  0.836E-01  0.836E-01
  -5.339  0.849E-01  0.849E-01
  -5.329  0.861E-01  0.861E-01
  -5.319  0.873E-01  0.873E-01
  -5.309  0.885E-01  0.885E-01
  -5.299  0.897E-01  0.897E-01
  -5.289  0.908E-01  0.908E-01
  -5.279  0.918E-01  0.918E-01
  -5.269  0.928E-01  0.928E-01
  -5.259  0.937E-01  0.937E-01
  -5.249  0.945E-01  0.945E-01
  -5.239  0.952E-01  0.952E-01
  -5.229  0.959E-01  0.959E-01
  -5.219  0.965E-01  0.965E-01
  -5.209  0.971E-01  0.971E-01
  -5.199  0.977E-01  0.977E-01
  -5.189  0.982E-01  0.982E-01
  -5.179  0.988E-01  0.988E-01
  -5.169  0.994E-01  0.994E-01
  -5.159  0.100E+00  0.100E+00
  -5.149  0.101E+00  0.101E+00
  -5.139  0.101E+00  0.101E+00
  -5.129  0.102E+00  0.102E+00
  -5.119  0.103E+00  0.103E+00
  -5.109  0.104E+00  0.104E+00
  -5.099  0.105E+00  0.105E+00
  -5.089  0.106E+00  0.106E+00
  -5.079  0.107E+00  0.107E+00
  -5.069  0.108E+00  0.108E+00
  -5.059  0.109E+00  0.109E+00
  -5.049  0.110E+00  0.110E+00
  -5.039  0.111E+00  0.111E+00
  -5.029  0.112E+00  0.112E+00
  -5.019  0.113E+00  0.113E+00
  -5.009  0.114E+00  0.114E+00
  -4.999  0.115E+00  0.115E+00
  -4.989  0.116E+00  0.116E+00
  -4.979  0.116E+00  0.116E+00
  -4.969  0.117E+00  0.117E+00
  -4.959  0.117E+00  0.117E+00
  -4.949  0.117E+00  0.117E+00
  -4.939  0.118E+00  0.118E+00
  -4.929  0.118E+00  0.118E+00
  -4.919  0.118E+00  0.118E+00
  -4.909  0.118E+00  0.118E+00
  -4.899  0.118E+00  0.118E+00
  -4.889  0.118E+00  0.118E+00
  -4.879  0.118E+00  0.118E+00
  -4.869  0.118E+00  0.118E+00
  -4.859  0.118E+00  0.118E+00
  -4.849  0.119E+00  0.119E+00
  -4.839  0.119E+00  0.119E+00
  -4.829  0.120E+00  0.120E+00
  -4.819  0.120E+00  0.120E+00
  -4.809  0.121E+00  0.121E+00
  -4.799  0.122E+00  0.122E+00
  -4.789  0.124E+00  0.124E+00
  -4.779  0.125E+00  0.125E+00
  -4.769  0.126E+00  0.126E+00
  -4.759  0.128E+00  0.128E+00
  -4.749  0.130E+00  0.130E+00
  -4.739  0.131E+00  0.131E+00
  -4.729  0.133E+00  0.133E+00
  -4.719  0.134E+00  0.134E+00
  -4.709  0.135E+00  0.135E+00
  -4.699  0.136E+00  0.136E+00
  -4.689  0.137E+00  0.137E+00
  -4.679  0.138E+00  0.138E+00
  -4.669  0.139E+00  0.139E+00
  -4.659  0.139E+00  0.139E+00
  -4.649  0.139E+00  0.139E+00
  -4.639  0.139E+00  0.139E+00
  -4.629  0.138E+00  0.138E+00
  -4.619  0.138E+00  0.138E+00
  -4.609  0.137E+00  0.137E+00
  -4.599  0.137E+00  0.137E+00
  -4.589  0.136E+00  0.136E+00
  -4.579  0.136E+00  0.136E+00
  -4.569  0.135E+00  0.135E+00
  -4.559  0.135E+00  0.135E+00
  -4.549  0.135E+00  0.135E+00
  -4.539  0.134E+00  0.134E+00
  -4.529  0.135E+00  0.135E+00
  -4.519  0.135E+00  0.135E+00
  -4.509  0.136E+00  0.136E+00
  -4.499  0.136E+00  0.136E+00
  -4.489  0.138E+00  0.138E+00
  -4.479  0.139E+00  0.139E+00
  -4.469  0.140E+00  0.140E+00
  -4.459  0.142E+00  0.142E+00
  -4.449  0.143E+00  0.143E+00
  -4.439  0.145E+00  0.145E+00
  -4.429  0.147E+00  0.147E+00
  -4.419  0.149E+00  0.149E+00
  -4.409  0.150E+00  0.150E+00
  -4.399  0.152E+00  0.152E+00
  -4.389  0.153E+00  0.153E+00
  -4.379  0.154E+00  0.154E+00
  -4.369  0.155E+00  0.155E+00
  -4.359  0.156E+00  0.156E+00
  -4.349  0.157E+00  0.157E+00
  -4.339  0.157E+00  0.157E+00
  -4.329  0.158E+00  0.158E+00
  -4.319  0.158E+00  0.158E+00
  -4.309  0.159E+00  0.159E+00
  -4.299  0.159E+00  0.159E+00
  -4.289  0.159E+00  0.159E+00
  -4.279  0.159E+00  0.159E+00
  -4.269  0.160E+00  0.160E+00
  -4.259  0.160E+00  0.160E+00
  -4.249  0.160E+00  0.160E+00
  -4.239  0.160E+00  0.160E+00
  -4.229  0.161E+00  0.161E+00
  -4.219  0.161E+00  0.161E+00
  -4.209  0.161E+00  0.161E+00
  -4.199  0.161E+00  0.161E+00
  -4.189  0.162E+00  0.162E+00
  -4.179  0.162E+00  0.162E+00
  -4.169  0.162E+00  0.162E+00
  -4.159  0.162E+00  0.162E+00
  -4.149  0.162E+00  0.162E+00
  -4.139  0.162E+00  0.162E+00
  -4.129  0.161E+00  0.161E+00
  -4.119  0.161E+00  0.161E+00
  -4.109  0.161E+00  0.161E+00
  -4.099  0.161E+00  0.161E+00
  -4.089  0.161E+00  0.161E+00
  -4.079  0.162E+00  0.162E+00
  -4.069  0.162E+00  0.162E+00
  -4.059  0.162E+00  0.162E+00
  -4.049  0.163E+00  0.163E+00
  -4.039  0.164E+00  0.164E+00
  -4.029  0.166E+00  0.166E+00
  -4.019  0.167E+00  0.167E+00
  -4.009  0.169E+00  0.169E+00
  -3.999  0.171E+00  0.171E+00
  -3.989  0.173E+00  0.173E+00
  -3.979  0.176E+00  0.176E+00
  -3.969  0.178E+00  0.178E+00
  -3.959  0.181E+00  0.181E+00
  -3.949  0.184E+00  0.184E+00
  -3.939  0.186E+00  0.186E+00
  -3.929  0.189E+00  0.189E+00
  -3.919  0.191E+00  0.191E+00
  -3.909  0.193E+00  0.193E+00
  -3.899  0.195E+00  0.195E+00
  -3.889  0.196E+00  0.196E+00
  -3.879  0.198E+00  0.198E+00
  -3.869  0.199E+00  0.199E+00
  -3.859  0.199E+00  0.199E+00
  -3.849  0.199E+00  0.199E+00
  -3.839  0.199E+00  0.199E+00
  -3.829  0.199E+00  0.199E+00
  -3.819  0.198E+00  0.198E+00
  -3.809  0.197E+00  0.197E+00
  -3.799  0.196E+00  0.196E+00
  -3.789  0.195E+00  0.195E+00
  -3.779  0.194E+00  0.194E+00
  -3.769  0.193E+00  0.193E+00
  -3.759  0.192E+00  0.192E+00
  -3.749  0.191E+00  0.191E+00
  -3.739  0.191E+00  0.191E+00
  -3.729  0.190E+00  0.190E+00
  -3.719  0.190E+00  0.190E+00
  -3.709  0.190E+00  0.190E+00
  -3.699  0.191E+00  0.191E+00
  -3.689  0.192E+00  0.192E+00
  -3.679  0.193E+00  0.193E+00
  -3.669  0.194E+00  0.194E+00
  -3.659  0.196E+00  0.196E+00
  -3.649  0.198E+00  0.198E+00
  -3.639  0.201E+00  0.201E+00
  -3.629  0.203E+00  0.203E+00
  -3.619  0.206E+00  0.206E+00
  -3.609  0.209E+00  0.209E+00
  -3.599  0.212E+00  0.212E+00
  -3.589  0.215E+00  0.215E+00
  -3.579  0.218E+00  0.218E+00
  -3.569  0.221E+00  0.221E+00
  -3.559  0.225E+00  0.225E+00
  -3.549  0.228E+00  0.228E+00
  -3.539  0.231E+00  0.231E+00
  -3.529  0.234E+00  0.234E+00
  -3.519  0.237E+00  0.237E+00
  -3.509  0.240E+00  0.240E+00
  -3.499  0.243E+00  0.243E+00
  -3.489  0.245E+00  0.245E+00
  -3.479  0.248E+00  0.248E+00
  -3.469  0.251E+00  0.251E+00
  -3.459  0.253E+00  0.253E+00
  -3.449  0.255E+00  0.255E+00
  -3.439  0.258E+00  0.258E+00
  -3.429  0.260E+00  0.260E+00
  -3.419  0.262E+00  0.262E+00
  -3.409  0.265E+00  0.265E+00
  -3.399  0.267E+00  0.267E+00
  -3.389  0.270E+00  0.270E+00
  -3.379  0.273E+00  0.273E+00
  -3.369  0.275E+00  0.275E+00
  -3.359  0.278E+00  0.278E+00
  -3.349  0.281E+00  0.281E+00
  -3.339  0.284E+00  0.284E+00
  -3.329  0.286E+00  0.286E+00
  -3.319  0.289E+00  0.289E+00
  -3.309  0.291E+00  0.291E+00
  -3.299  0.292E+00  0.292E+00
  -3.289  0.293E+00  0.293E+00
  -3.279  0.294E+00  0.294E+00
  -3.269  0.294E+00  0.294E+00
  -3.259  0.293E+00  0.293E+00
  -3.249  0.292E+00  0.292E+00
  -3.239  0.290E+00  0.290E+00
  -3.229  0.288E+00  0.288E+00
  -3.219  0.285E+00  0.285E+00
  -3.209  0.281E+00  0.281E+00
  -3.199  0.278E+00  0.278E+00
  -3.189  0.274E+00  0.274E+00
  -3.179  0.271E+00  0.271E+00
  -3.169  0.267E+00  0.267E+00
  -3.159  0.264E+00  0.264E+00
  -3.149  0.262E+00  0.262E+00
  -3.139  0.260E+00  0.260E+00
  -3.129  0.258E+00  0.258E+00
  -3.119  0.258E+00  0.258E+00
  -3.109  0.258E+00  0.258E+00
  -3.099  0.258E+00  0.258E+00
  -3.089  0.259E+00  0.259E+00
  -3.079  0.261E+00  0.261E+00
  -3.069  0.263E+00  0.263E+00
  -3.059  0.264E+00  0.264E+00
  -3.049  0.266E+00  0.266E+00
  -3.039  0.268E+00  0.268E+00
  -3.029  0.270E+00  0.270E+00
  -3.019  0.271E+00  0.271E+00
  -3.009  0.272E+00  0.272E+00
  -2.999  0.272E+00  0.272E+00
  -2.989  0.272E+00  0.272E+00
  -2.979  0.271E+00  0.271E+00
  -2.969  0.270E+00  0.270E+00
  -2.959  0.268E+00  0.268E+00
  -2.949  0.266E+00  0.266E+00
  -2.939  0.264E+00  0.264E+00
  -2.929  0.261E+00  0.261E+00
  -2.919  0.259E+00  0.259E+00
  -2.909  0.256E+00  0.256E+00
  -2.899  0.254E+00  0.254E+00
  -2.889  0.251E+00  0.251E+00
  -2.879  0.249E+00  0.249E+00
  -2.869  0.247E+00  0.247E+00
  -2.859  0.246E+00  0.246E+00
  -2.849  0.244E+00  0.244E+00
  -2.839  0.243E+00  0.243E+00
  -2.829  0.242E+00  0.242E+00
  -2.819  0.242E+00  0.242E+00
  -2.809  0.242E+00  0.242E+00
  -2.799  0.241E+00  0.241E+00
  -2.789  0.241E+00  0.241E+00
  -2.779  0.241E+00  0.241E+00
  -2.769  0.241E+00  0.241E+00
  -2.759  0.241E+00  0.241E+00
  -2.749  0.240E+00  0.240E+00
  -2.739  0.239E+00  0.239E+00
  -2.729  0.238E+00  0.238E+00
  -2.719  0.237E+00  0.237E+00
  -2.709  0.234E+00  0.234E+00
  -2.699  0.232E+00  0.232E+00
  -2.689  0.229E+00  0.229E+00
  -2.679  0.225E+00  0.225E+00
  -2.669  0.221E+00  0.221E+00
  -2.659  0.216E+00  0.216E+00
  -2.649  0.212E+00  0.212E+00
  -2.639  0.206E+00  0.206E+00
  -2.629  0.201E+00  0.201E+00
  -2.619  0.196E+00  0.196E+00
  -2.609  0.191E+00  0.191E+00
  -2.599  0.185E+00  0.185E+00
  -2.589  0.181E+00  0.181E+00
  -2.579  0.176E+00  0.176E+00
  -2.569  0.173E+00  0.173E+00
  -2.559  0.170E+00  0.170E+00
  -2.549  0.167E+00  0.167E+00
  -2.539  0.166E+00  0.166E+00
  -2.529  0.165E+00  0.165E+00
  -2.519  0.165E+00  0.165E+00
  -2.509  0.166E+00  0.166E+00
  -2.499  0.168E+00  0.168E+00
  -2.489  0.170E+00  0.170E+00
  -2.479  0.173E+00  0.173E+00
  -2.469  0.176E+00  0.176E+00
  -2.459  0.180E+00  0.180E+00
  -2.449  0.185E+00  0.185E+00
  -2.439  0.189E+00  0.189E+00
  -2.429  0.193E+00  0.193E+00
  -2.419  0.198E+00  0.198E+00
  -2.409  0.202E+00  0.202E+00
  -2.399  0.205E+00  0.205E+00
  -2.389  0.209E+00  0.209E+00
  -2.379  0.211E+00  0.211E+00
  -2.369  0.213E+00  0.213E+00
  -2.359  0.215E+00  0.215E+00
  -2.349  0.216E+00  0.216E+00
  -2.339  0.216E+00  0.216E+00
  -2.329  0.215E+00  0.215E+00
  -2.319  0.214E+00  0.214E+00
  -2.309  0.212E+00  0.212E+00
  -2.299  0.210E+00  0.210E+00
  -2.289  0.206E+00  0.206E+00
  -2.279  0.203E+00  0.203E+00
  -2.269  0.199E+00  0.199E+00
  -2.259  0.194E+00  0.194E+00
  -2.249  0.189E+00  0.189E+00
  -2.239  0.184E+00  0.184E+00
  -2.229  0.179E+00  0.179E+00
  -2.219  0.173E+00  0.173E+00
  -2.209  0.168E+00  0.168E+00
  -2.199  0.162E+00  0.162E+00
  -2.189  0.156E+00  0.156E+00
  -2.179  0.151E+00  0.151E+00
  -2.169  0.145E+00  0.145E+00
  -2.159  0.140E+00  0.140E+00
  -2.149  0.134E+00  0.134E+00
  -2.139  0.129E+00  0.129E+00
  -2.129  0.124E+00  0.124E+00
  -2.119  0.119E+00  0.119E+00
  -2.109  0.115E+00  0.115E+00
  -2.099  0.111E+00  0.111E+00
  -2.089  0.107E+00  0.107E+00
  -2.079  0.104E+00  0.104E+00
  -2.069  0.101E+00  0.101E+00
  -2.059  0.988E-01  0.988E-01
  -2.049  0.970E-01  0.970E-01
  -2.039  0.956E-01  0.956E-01
  -2.029  0.948E-01  0.948E-01
  -2.019  0.945E-01  0.945E-01
  -2.009  0.948E-01  0.948E-01
  -1.999  0.956E-01  0.956E-01
  -1.989  0.969E-01  0.969E-01
  -1.979  0.987E-01  0.987E-01
  -1.969  0.101E+00  0.101E+00
  -1.959  0.104E+00  0.104E+00
  -1.949  0.107E+00  0.107E+00
  -1.939  0.110E+00  0.110E+00
  -1.929  0.113E+00  0.113E+00
  -1.919  0.117E+00  0.117E+00
  -1.909  0.120E+00  0.120E+00
  -1.899  0.124E+00  0.124E+00
  -1.889  0.127E+00  0.127E+00
  -1.879  0.130E+00  0.130E+00
  -1.869  0.133E+00  0.133E+00
  -1.859  0.136E+00  0.136E+00
  -1.849  0.138E+00  0.138E+00
  -1.839  0.139E+00  0.139E+00
  -1.829  0.139E+00  0.139E+00
  -1.819  0.139E+00  0.139E+00
  -1.809  0.139E+00  0.139E+00
  -1.799  0.138E+00  0.138E+00
  -1.789  0.136E+00  0.136E+00
  -1.779  0.133E+00  0.133E+00
  -1.769  0.130E+00  0.130E+00
  -1.759  0.126E+00  0.126E+00
  -1.749  0.122E+00  0.122E+00
  -1.739  0.118E+00  0.118E+00
  -1.729  0.113E+00  0.113E+00
  -1.719  0.108E+00  0.108E+00
  -1.709  0.103E+00  0.103E+00
  -1.699  0.974E-01  0.974E-01
  -1.689  0.919E-01  0.919E-01
  -1.679  0.864E-01  0.864E-01
  -1.669  0.809E-01  0.809E-01
  -1.659  0.754E-01  0.754E-01
  -1.649  0.699E-01  0.699E-01
  -1.639  0.646E-01  0.646E-01
  -1.629  0.593E-01  0.593E-01
  -1.619  0.542E-01  0.542E-01
  -1.609  0.492E-01  0.492E-01
  -1.599  0.444E-01  0.444E-01
  -1.589  0.399E-01  0.399E-01
  -1.579  0.356E-01  0.356E-01
  -1.569  0.315E-01  0.315E-01
  -1.559  0.277E-01  0.277E-01
  -1.549  0.241E-01  0.241E-01
  -1.539  0.209E-01  0.209E-01
  -1.529  0.180E-01  0.180E-01
  -1.519  0.154E-01  0.154E-01
  -1.509  0.130E-01  0.130E-01
  -1.499  0.110E-01  0.110E-01
  -1.489  0.927E-02  0.927E-02
  -1.479  0.781E-02  0.781E-02
  -1.469  0.663E-02  0.663E-02
  -1.459  0.571E-02  0.571E-02
  -1.449  0.506E-02  0.506E-02
  -1.439  0.467E-02  0.467E-02
  -1.429  0.454E-02  0.454E-02
  -1.419  0.467E-02  0.467E-02
  -1.409  0.509E-02  0.509E-02
  -1.399  0.580E-02  0.580E-02
  -1.389  0.682E-02  0.682E-02
  -1.379  0.818E-02  0.818E-02
  -1.369  0.990E-02  0.990E-02
  -1.359  0.120E-01  0.120E-01
  -1.349  0.146E-01  0.146E-01
  -1.339  0.176E-01  0.176E-01
  -1.329  0.210E-01  0.210E-01
  -1.319  0.250E-01  0.250E-01
  -1.309  0.294E-01  0.294E-01
  -1.299  0.343E-01  0.343E-01
  -1.289  0.397E-01  0.397E-01
  -1.279  0.455E-01  0.455E-01
  -1.269  0.517E-01  0.517E-01
  -1.259  0.583E-01  0.583E-01
  -1.249  0.650E-01  0.650E-01
  -1.239  0.719E-01  0.719E-01
  -1.229  0.788E-01  0.788E-01
  -1.219  0.856E-01  0.856E-01
  -1.209  0.922E-01  0.922E-01
  -1.199  0.985E-01  0.985E-01
  -1.189  0.104E+00  0.104E+00
  -1.179  0.109E+00  0.109E+00
  -1.169  0.114E+00  0.114E+00
  -1.159  0.118E+00  0.118E+00
  -1.149  0.121E+00  0.121E+00
  -1.139  0.123E+00  0.123E+00
  -1.129  0.124E+00  0.124E+00
  -1.119  0.124E+00  0.124E+00
  -1.109  0.124E+00  0.124E+00
  -1.099  0.122E+00  0.122E+00
  -1.089  0.120E+00  0.120E+00
  -1.079  0.117E+00  0.117E+00
  -1.069  0.114E+00  0.114E+00
  -1.059  0.111E+00  0.111E+00
  -1.049  0.107E+00  0.107E+00
  -1.039  0.103E+00  0.103E+00
  -1.029  0.986E-01  0.986E-01
  -1.019  0.945E-01  0.945E-01
  -1.009  0.905E-01  0.905E-01
  -0.999  0.867E-01  0.867E-01
  -0.989  0.831E-01  0.831E-01
  -0.979  0.798E-01  0.798E-01
  -0.969  0.769E-01  0.769E-01
  -0.959  0.743E-01  0.743E-01
  -0.949  0.721E-01  0.721E-01
  -0.939  0.703E-01  0.703E-01
  -0.929  0.688E-01  0.688E-01
  -0.919  0.678E-01  0.678E-01
  -0.909  0.671E-01  0.671E-01
  -0.899  0.669E-01  0.669E-01
  -0.889  0.670E-01  0.670E-01
  -0.879  0.676E-01  0.676E-01
  -0.869  0.687E-01  0.687E-01
  -0.859  0.703E-01  0.703E-01
  -0.849  0.724E-01  0.724E-01
  -0.839  0.751E-01  0.751E-01
  -0.829  0.784E-01  0.784E-01
  -0.819  0.823E-01  0.823E-01
  -0.809  0.869E-01  0.869E-01
  -0.799  0.922E-01  0.922E-01
  -0.789  0.983E-01  0.983E-01
  -0.779  0.105E+00  0.105E+00
  -0.769  0.113E+00  0.113E+00
  -0.759  0.121E+00  0.121E+00
  -0.749  0.130E+00  0.130E+00
  -0.739  0.140E+00  0.140E+00
  -0.729  0.150E+00  0.150E+00
  -0.719  0.162E+00  0.162E+00
  -0.709  0.173E+00  0.173E+00
  -0.699  0.185E+00  0.185E+00
  -0.689  0.197E+00  0.197E+00
  -0.679  0.210E+00  0.210E+00
  -0.669  0.222E+00  0.222E+00
  -0.659  0.234E+00  0.234E+00
  -0.649  0.246E+00  0.246E+00
  -0.639  0.257E+00  0.257E+00
  -0.629  0.268E+00  0.268E+00
  -0.619  0.277E+00  0.277E+00
  -0.609  0.286E+00  0.286E+00
  -0.599  0.293E+00  0.293E+00
  -0.589  0.299E+00  0.299E+00
  -0.579  0.304E+00  0.304E+00
  -0.569  0.307E+00  0.307E+00
  -0.559  0.309E+00  0.309E+00
  -0.549  0.309E+00  0.309E+00
  -0.539  0.308E+00  0.308E+00
  -0.529  0.306E+00  0.306E+00
  -0.519  0.302E+00  0.302E+00
  -0.509  0.297E+00  0.297E+00
  -0.499  0.291E+00  0.291E+00
  -0.489  0.284E+00  0.284E+00
  -0.479  0.277E+00  0.277E+00
  -0.469  0.269E+00  0.269E+00
  -0.459  0.260E+00  0.260E+00
  -0.449  0.252E+00  0.252E+00
  -0.439  0.244E+00  0.244E+00
  -0.429  0.235E+00  0.235E+00
  -0.419  0.227E+00  0.227E+00
  -0.409  0.220E+00  0.220E+00
  -0.399  0.212E+00  0.212E+00
  -0.389  0.206E+00  0.206E+00
  -0.379  0.199E+00  0.199E+00
  -0.369  0.194E+00  0.194E+00
  -0.359  0.189E+00  0.189E+00
  -0.349  0.184E+00  0.184E+00
  -0.339  0.181E+00  0.181E+00
  -0.329  0.177E+00  0.177E+00
  -0.319  0.175E+00  0.175E+00
  -0.309  0.172E+00  0.172E+00
  -0.299  0.171E+00  0.171E+00
  -0.289  0.169E+00  0.169E+00
  -0.279  0.168E+00  0.168E+00
  -0.269  0.166E+00  0.166E+00
  -0.259  0.165E+00  0.165E+00
  -0.249  0.164E+00  0.164E+00
  -0.239  0.163E+00  0.163E+00
  -0.229  0.162E+00  0.162E+00
  -0.219  0.161E+00  0.161E+00
  -0.209  0.159E+00  0.159E+00
  -0.199  0.158E+00  0.158E+00
  -0.189  0.156E+00  0.156E+00
  -0.179  0.154E+00  0.154E+00
  -0.169  0.152E+00  0.152E+00
  -0.159  0.150E+00  0.150E+00
  -0.149  0.148E+00  0.148E+00
  -0.139  0.146E+00  0.146E+00
  -0.129  0.144E+00  0.144E+00
  -0.119  0.143E+00  0.143E+00
  -0.109  0.142E+00  0.142E+00
  -0.099  0.141E+00  0.141E+00
  -0.089  0.141E+00  0.141E+00
  -0.079  0.141E+00  0.141E+00
  -0.069  0.142E+00  0.142E+00
  -0.059  0.143E+00  0.143E+00
  -0.049  0.145E+00  0.145E+00
  -0.039  0.147E+00  0.147E+00
  -0.029  0.149E+00  0.149E+00
  -0.019  0.152E+00  0.152E+00
  -0.009  0.154E+00  0.154E+00
   0.001  0.156E+00  0.156E+00
   0.011  0.158E+00  0.158E+00
   0.021  0.160E+00  0.160E+00
   0.031  0.162E+00  0.162E+00
   0.041  0.162E+00  0.162E+00
   0.051  0.162E+00  0.162E+00
   0.061  0.162E+00  0.162E+00
   0.071  0.160E+00  0.160E+00
   0.081  0.158E+00  0.158E+00
   0.091  0.155E+00  0.155E+00
   0.101  0.151E+00  0.151E+00
   0.111  0.147E+00  0.147E+00
   0.121  0.142E+00  0.142E+00
   0.131  0.137E+00  0.137E+00
   0.141  0.132E+00  0.132E+00
   0.151  0.126E+00  0.126E+00
   0.161  0.121E+00  0.121E+00
   0.171  0.115E+00  0.115E+00
   0.181  0.110E+00  0.110E+00
   0.191  0.106E+00  0.106E+00
   0.201  0.101E+00  0.101E+00
   0.211  0.977E-01  0.977E-01
   0.221  0.948E-01  0.948E-01
   0.231  0.925E-01  0.925E-01
   0.241  0.909E-01  0.909E-01
   0.251  0.900E-01  0.900E-01
   0.261  0.898E-01  0.898E-01
   0.271  0.901E-01  0.901E-01
   0.281  0.910E-01  0.910E-01
   0.291  0.923E-01  0.923E-01
   0.301  0.939E-01  0.939E-01
   0.311  0.958E-01  0.958E-01
   0.321  0.978E-01  0.978E-01
   0.331  0.998E-01  0.998E-01
   0.341  0.102E+00  0.102E+00
   0.351  0.103E+00  0.103E+00
   0.361  0.105E+00  0.105E+00
   0.371  0.106E+00  0.106E+00
   0.381  0.107E+00  0.107E+00
   0.391  0.107E+00  0.107E+00
   0.401  0.106E+00  0.106E+00
   0.411  0.106E+00  0.106E+00
   0.421  0.104E+00  0.104E+00
   0.431  0.102E+00  0.102E+00
   0.441  0.100E+00  0.100E+00
   0.451  0.975E-01  0.975E-01
   0.461  0.945E-01  0.945E-01
   0.471  0.913E-01  0.913E-01
   0.481  0.880E-01  0.880E-01
   0.491  0.847E-01  0.847E-01
   0.501  0.814E-01  0.814E-01
   0.511  0.782E-01  0.782E-01
   0.521  0.753E-01  0.753E-01
   0.531  0.727E-01  0.727E-01
   0.541  0.705E-01  0.705E-01
   0.551  0.688E-01  0.688E-01
   0.561  0.676E-01  0.676E-01
   0.571  0.670E-01  0.670E-01
   0.581  0.670E-01  0.670E-01
   0.591  0.676E-01  0.676E-01
   0.601  0.688E-01  0.688E-01
   0.611  0.706E-01  0.706E-01
   0.621  0.729E-01  0.729E-01
   0.631  0.757E-01  0.757E-01
   0.641  0.789E-01  0.789E-01
   0.651  0.824E-01  0.824E-01
   0.661  0.861E-01  0.861E-01
   0.671  0.899E-01  0.899E-01
   0.681  0.936E-01  0.936E-01
   0.691  0.973E-01  0.973E-01
   0.701  0.101E+00  0.101E+00
   0.711  0.104E+00  0.104E+00
   0.721  0.106E+00  0.106E+00
   0.731  0.108E+00  0.108E+00
   0.741  0.110E+00  0.110E+00
   0.751  0.110E+00  0.110E+00
   0.761  0.110E+00  0.110E+00
   0.771  0.109E+00  0.109E+00
   0.781  0.108E+00  0.108E+00
   0.791  0.106E+00  0.106E+00
   0.801  0.103E+00  0.103E+00
   0.811  0.997E-01  0.997E-01
   0.821  0.959E-01  0.959E-01
   0.831  0.917E-01  0.917E-01
   0.841  0.872E-01  0.872E-01
   0.851  0.825E-01  0.825E-01
   0.861  0.778E-01  0.778E-01
   0.871  0.732E-01  0.732E-01
   0.881  0.687E-01  0.687E-01
   0.891  0.644E-01  0.644E-01
   0.901  0.605E-01  0.605E-01
   0.911  0.569E-01  0.569E-01
   0.921  0.538E-01  0.538E-01
   0.931  0.511E-01  0.511E-01
   0.941  0.490E-01  0.490E-01
   0.951  0.474E-01  0.474E-01
   0.961  0.462E-01  0.462E-01
   0.971  0.456E-01  0.456E-01
   0.981  0.455E-01  0.455E-01
   0.991  0.458E-01  0.458E-01
   1.001  0.465E-01  0.465E-01
   1.011  0.476E-01  0.476E-01
   1.021  0.491E-01  0.491E-01
   1.031  0.508E-01  0.508E-01
   1.041  0.527E-01  0.527E-01
   1.051  0.549E-01  0.549E-01
   1.061  0.571E-01  0.571E-01
   1.071  0.594E-01  0.594E-01
   1.081  0.618E-01  0.618E-01
   1.091  0.641E-01  0.641E-01
   1.101  0.663E-01  0.663E-01
   1.111  0.683E-01  0.683E-01
   1.121  0.701E-01  0.701E-01
   1.131  0.716E-01  0.716E-01
   1.141  0.729E-01  0.729E-01
   1.151  0.738E-01  0.738E-01
   1.161  0.743E-01  0.743E-01
   1.171  0.745E-01  0.745E-01
   1.181  0.742E-01  0.742E-01
   1.191  0.735E-01  0.735E-01
   1.201  0.724E-01  0.724E-01
   1.211  0.710E-01  0.710E-01
   1.221  0.692E-01  0.692E-01
   1.231  0.671E-01  0.671E-01
   1.241  0.647E-01  0.647E-01
   1.251  0.622E-01  0.622E-01
   1.261  0.594E-01  0.594E-01
   1.271  0.566E-01  0.566E-01
   1.281  0.538E-01  0.538E-01
   1.291  0.511E-01  0.511E-01
   1.301  0.484E-01  0.484E-01
   1.311  0.459E-01  0.459E-01
   1.321  0.437E-01  0.437E-01
   1.331  0.417E-01  0.417E-01
   1.341  0.401E-01  0.401E-01
   1.351  0.388E-01  0.388E-01
   1.361  0.379E-01  0.379E-01
   1.371  0.374E-01  0.374E-01
   1.381  0.373E-01  0.373E-01
   1.391  0.376E-01  0.376E-01
   1.401  0.383E-01  0.383E-01
   1.411  0.394E-01  0.394E-01
   1.421  0.409E-01  0.409E-01
   1.431  0.426E-01  0.426E-01
   1.441  0.446E-01  0.446E-01
   1.451  0.468E-01  0.468E-01
   1.461  0.492E-01  0.492E-01
   1.471  0.516E-01  0.516E-01
   1.481  0.541E-01  0.541E-01
   1.491  0.566E-01  0.566E-01
   1.501  0.589E-01  0.589E-01
   1.511  0.612E-01  0.612E-01
   1.521  0.631E-01  0.631E-01
   1.531  0.649E-01  0.649E-01
   1.541  0.663E-01  0.663E-01
   1.551  0.673E-01  0.673E-01
   1.561  0.680E-01  0.680E-01
   1.571  0.682E-01  0.682E-01
   1.581  0.681E-01  0.681E-01
   1.591  0.674E-01  0.674E-01
   1.601  0.664E-01  0.664E-01
   1.611  0.649E-01  0.649E-01
   1.621  0.630E-01  0.630E-01
   1.631  0.608E-01  0.608E-01
   1.641  0.583E-01  0.583E-01
   1.651  0.555E-01  0.555E-01
   1.661  0.526E-01  0.526E-01
   1.671  0.496E-01  0.496E-01
   1.681  0.465E-01  0.465E-01
   1.691  0.434E-01  0.434E-01
   1.701  0.404E-01  0.404E-01
   1.711  0.376E-01  0.376E-01
   1.721  0.350E-01  0.350E-01
   1.731  0.327E-01  0.327E-01
   1.741  0.306E-01  0.306E-01
   1.751  0.288E-01  0.288E-01
   1.761  0.274E-01  0.274E-01
   1.771  0.263E-01  0.263E-01
   1.781  0.256E-01  0.256E-01
   1.791  0.251E-01  0.251E-01
   1.801  0.249E-01  0.249E-01
   1.811  0.251E-01  0.251E-01
   1.821  0.254E-01  0.254E-01
   1.831  0.260E-01  0.260E-01
   1.841  0.268E-01  0.268E-01
   1.851  0.277E-01  0.277E-01
   1.861  0.288E-01  0.288E-01
   1.871  0.300E-01  0.300E-01
   1.881  0.314E-01  0.314E-01
   1.891  0.328E-01  0.328E-01
   1.901  0.342E-01  0.342E-01
   1.911  0.358E-01  0.358E-01
   1.921  0.374E-01  0.374E-01
   1.931  0.390E-01  0.390E-01
   1.941  0.408E-01  0.408E-01
   1.951  0.425E-01  0.425E-01
   1.961  0.443E-01  0.443E-01
   1.971  0.461E-01  0.461E-01
   1.981  0.479E-01  0.479E-01
   1.991  0.496E-01  0.496E-01
   2.001  0.514E-01  0.514E-01
   2.011  0.530E-01  0.530E-01
   2.021  0.546E-01  0.546E-01
   2.031  0.561E-01  0.561E-01
   2.041  0.574E-01  0.574E-01
   2.051  0.585E-01  0.585E-01
   2.061  0.593E-01  0.593E-01
   2.071  0.600E-01  0.600E-01
   2.081  0.604E-01  0.604E-01
   2.091  0.604E-01  0.604E-01
   2.101  0.602E-01  0.602E-01
   2.111  0.598E-01  0.598E-01
   2.121  0.590E-01  0.590E-01
   2.131  0.580E-01  0.580E-01
   2.141  0.567E-01  0.567E-01
   2.151  0.552E-01  0.552E-01
   2.161  0.536E-01  0.536E-01
   2.171  0.519E-01  0.519E-01
   2.181  0.501E-01  0.501E-01
   2.191  0.483E-01  0.483E-01
   2.201  0.466E-01  0.466E-01
   2.211  0.449E-01  0.449E-01
   2.221  0.434E-01  0.434E-01
   2.231  0.421E-01  0.421E-01
   2.241  0.410E-01  0.410E-01
   2.251  0.402E-01  0.402E-01
   2.261  0.396E-01  0.396E-01
   2.271  0.393E-01  0.393E-01
   2.281  0.392E-01  0.392E-01
   2.291  0.394E-01  0.394E-01
   2.301  0.399E-01  0.399E-01
   2.311  0.406E-01  0.406E-01
   2.321  0.415E-01  0.415E-01
   2.331  0.426E-01  0.426E-01
   2.341  0.439E-01  0.439E-01
   2.351  0.453E-01  0.453E-01
   2.361  0.468E-01  0.468E-01
   2.371  0.483E-01  0.483E-01
   2.381  0.499E-01  0.499E-01
   2.391  0.514E-01  0.514E-01
   2.401  0.529E-01  0.529E-01
   2.411  0.544E-01  0.544E-01
   2.421  0.557E-01  0.557E-01
   2.431  0.569E-01  0.569E-01
   2.441  0.580E-01  0.580E-01
   2.451  0.589E-01  0.589E-01
   2.461  0.597E-01  0.597E-01
   2.471  0.602E-01  0.602E-01
   2.481  0.606E-01  0.606E-01
   2.491  0.608E-01  0.608E-01
   2.501  0.608E-01  0.608E-01
   2.511  0.606E-01  0.606E-01
   2.521  0.602E-01  0.602E-01
   2.531  0.597E-01  0.597E-01
   2.541  0.590E-01  0.590E-01
   2.551  0.581E-01  0.581E-01
   2.561  0.571E-01  0.571E-01
   2.571  0.560E-01  0.560E-01
   2.581  0.548E-01  0.548E-01
   2.591  0.536E-01  0.536E-01
   2.601  0.523E-01  0.523E-01
   2.611  0.510E-01  0.510E-01
   2.621  0.496E-01  0.496E-01
   2.631  0.483E-01  0.483E-01
   2.641  0.471E-01  0.471E-01
   2.651  0.459E-01  0.459E-01
   2.661  0.449E-01  0.449E-01
   2.671  0.439E-01  0.439E-01
   2.681  0.431E-01  0.431E-01
   2.691  0.424E-01  0.424E-01
   2.701  0.418E-01  0.418E-01
   2.711  0.414E-01  0.414E-01
   2.721  0.412E-01  0.412E-01
   2.731  0.411E-01  0.411E-01
   2.741  0.411E-01  0.411E-01
   2.751  0.413E-01  0.413E-01
   2.761  0.417E-01  0.417E-01
   2.771  0.421E-01  0.421E-01
   2.781  0.427E-01  0.427E-01
   2.791  0.434E-01  0.434E-01
   2.801  0.441E-01  0.441E-01
   2.811  0.449E-01  0.449E-01
   2.821  0.458E-01  0.458E-01
   2.831  0.468E-01  0.468E-01
   2.841  0.477E-01  0.477E-01
   2.851  0.487E-01  0.487E-01
   2.861  0.498E-01  0.498E-01
   2.871  0.508E-01  0.508E-01
   2.881  0.517E-01  0.517E-01
   2.891  0.527E-01  0.527E-01
   2.901  0.536E-01  0.536E-01
   2.911  0.544E-01  0.544E-01
   2.921  0.551E-01  0.551E-01
   2.931  0.557E-01  0.557E-01
   2.941  0.562E-01  0.562E-01
   2.951  0.566E-01  0.566E-01
   2.961  0.569E-01  0.569E-01
   2.971  0.571E-01  0.571E-01
   2.981  0.571E-01  0.571E-01
   2.991  0.570E-01  0.570E-01
   3.001  0.568E-01  0.568E-01
   3.011  0.565E-01  0.565E-01
   3.021  0.561E-01  0.561E-01
   3.031  0.556E-01  0.556E-01
   3.041  0.550E-01  0.550E-01
   3.051  0.544E-01  0.544E-01
   3.061  0.537E-01  0.537E-01
   3.071  0.530E-01  0.530E-01
   3.081  0.522E-01  0.522E-01
   3.091  0.514E-01  0.514E-01
   3.101  0.506E-01  0.506E-01
   3.111  0.497E-01  0.497E-01
   3.121  0.489E-01  0.489E-01
   3.131  0.479E-01  0.479E-01
   3.141  0.470E-01  0.470E-01
   3.151  0.461E-01  0.461E-01
   3.161  0.451E-01  0.451E-01
   3.171  0.441E-01  0.441E-01
   3.181  0.431E-01  0.431E-01
   3.191  0.422E-01  0.422E-01
   3.201  0.412E-01  0.412E-01
   3.211  0.403E-01  0.403E-01
   3.221  0.394E-01  0.394E-01
   3.231  0.385E-01  0.385E-01
   3.241  0.378E-01  0.378E-01
   3.251  0.371E-01  0.371E-01
   3.261  0.365E-01  0.365E-01
   3.271  0.361E-01  0.361E-01
   3.281  0.357E-01  0.357E-01
   3.291  0.355E-01  0.355E-01
   3.301  0.355E-01  0.355E-01
   3.311  0.356E-01  0.356E-01
   3.321  0.359E-01  0.359E-01
   3.331  0.362E-01  0.362E-01
   3.341  0.368E-01  0.368E-01
   3.351  0.374E-01  0.374E-01
   3.361  0.381E-01  0.381E-01
   3.371  0.389E-01  0.389E-01
   3.381  0.398E-01  0.398E-01
   3.391  0.407E-01  0.407E-01
   3.401  0.417E-01  0.417E-01
   3.411  0.426E-01  0.426E-01
   3.421  0.435E-01  0.435E-01
   3.431  0.444E-01  0.444E-01
   3.441  0.452E-01  0.452E-01
   3.451  0.460E-01  0.460E-01
   3.461  0.466E-01  0.466E-01
   3.471  0.472E-01  0.472E-01
   3.481  0.476E-01  0.476E-01
   3.491  0.479E-01  0.479E-01
   3.501  0.481E-01  0.481E-01
   3.511  0.481E-01  0.481E-01
   3.521  0.480E-01  0.480E-01
   3.531  0.478E-01  0.478E-01
   3.541  0.475E-01  0.475E-01
   3.551  0.470E-01  0.470E-01
   3.561  0.465E-01  0.465E-01
   3.571  0.458E-01  0.458E-01
   3.581  0.451E-01  0.451E-01
   3.591  0.442E-01  0.442E-01
   3.601  0.433E-01  0.433E-01
   3.611  0.424E-01  0.424E-01
   3.621  0.414E-01  0.414E-01
   3.631  0.404E-01  0.404E-01
   3.641  0.393E-01  0.393E-01
   3.651  0.383E-01  0.383E-01
   3.661  0.373E-01  0.373E-01
   3.671  0.363E-01  0.363E-01
   3.681  0.353E-01  0.353E-01
   3.691  0.343E-01  0.343E-01
   3.701  0.334E-01  0.334E-01
   3.711  0.326E-01  0.326E-01
   3.721  0.318E-01  0.318E-01
   3.731  0.310E-01  0.310E-01
   3.741  0.303E-01  0.303E-01
   3.751  0.297E-01  0.297E-01
   3.761  0.292E-01  0.292E-01
   3.771  0.287E-01  0.287E-01
   3.781  0.284E-01  0.284E-01
   3.791  0.282E-01  0.282E-01
   3.801  0.280E-01  0.280E-01
   3.811  0.280E-01  0.280E-01
   3.821  0.281E-01  0.281E-01
   3.831  0.283E-01  0.283E-01
   3.841  0.286E-01  0.286E-01
   3.851  0.291E-01  0.291E-01
   3.861  0.296E-01  0.296E-01
   3.871  0.302E-01  0.302E-01
   3.881  0.308E-01  0.308E-01
   3.891  0.316E-01  0.316E-01
   3.901  0.323E-01  0.323E-01
   3.911  0.331E-01  0.331E-01
   3.921  0.338E-01  0.338E-01
   3.931  0.345E-01  0.345E-01
   3.941  0.351E-01  0.351E-01
   3.951  0.356E-01  0.356E-01
   3.961  0.361E-01  0.361E-01
   3.971  0.364E-01  0.364E-01
   3.981  0.366E-01  0.366E-01
   3.991  0.366E-01  0.366E-01
   4.001  0.365E-01  0.365E-01
   4.011  0.363E-01  0.363E-01
   4.021  0.359E-01  0.359E-01
   4.031  0.354E-01  0.354E-01
   4.041  0.348E-01  0.348E-01
   4.051  0.341E-01  0.341E-01
   4.061  0.333E-01  0.333E-01
   4.071  0.325E-01  0.325E-01
   4.081  0.316E-01  0.316E-01
   4.091  0.307E-01  0.307E-01
   4.101  0.298E-01  0.298E-01
   4.111  0.289E-01  0.289E-01
   4.121  0.280E-01  0.280E-01
   4.131  0.272E-01  0.272E-01
   4.141  0.264E-01  0.264E-01
   4.151  0.257E-01  0.257E-01
   4.161  0.251E-01  0.251E-01
   4.171  0.246E-01  0.246E-01
   4.181  0.241E-01  0.241E-01
   4.191  0.237E-01  0.237E-01
   4.201  0.234E-01  0.234E-01
   4.211  0.231E-01  0.231E-01
   4.221  0.230E-01  0.230E-01
   4.231  0.228E-01  0.228E-01
   4.241  0.227E-01  0.227E-01
   4.251  0.226E-01  0.226E-01
   4.261  0.226E-01  0.226E-01
   4.271  0.225E-01  0.225E-01
   4.281  0.225E-01  0.225E-01
   4.291  0.224E-01  0.224E-01
   4.301  0.224E-01  0.224E-01
   4.311  0.223E-01  0.223E-01
   4.321  0.222E-01  0.222E-01
   4.331  0.221E-01  0.221E-01
   4.341  0.221E-01  0.221E-01
   4.351  0.220E-01  0.220E-01
   4.361  0.219E-01  0.219E-01
   4.371  0.218E-01  0.218E-01
   4.381  0.217E-01  0.217E-01
   4.391  0.216E-01  0.216E-01
   4.401  0.215E-01  0.215E-01
   4.411  0.214E-01  0.214E-01
   4.421  0.214E-01  0.214E-01
   4.431  0.214E-01  0.214E-01
   4.441  0.214E-01  0.214E-01
   4.451  0.214E-01  0.214E-01
   4.461  0.215E-01  0.215E-01
   4.471  0.216E-01  0.216E-01
   4.481  0.217E-01  0.217E-01
   4.491  0.219E-01  0.219E-01
   4.501  0.220E-01  0.220E-01
   4.511  0.222E-01  0.222E-01
   4.521  0.224E-01  0.224E-01
   4.531  0.225E-01  0.225E-01
   4.541  0.226E-01  0.226E-01
   4.551  0.227E-01  0.227E-01
   4.561  0.228E-01  0.228E-01
   4.571  0.228E-01  0.228E-01
   4.581  0.227E-01  0.227E-01
   4.591  0.226E-01  0.226E-01
   4.601  0.224E-01  0.224E-01
   4.611  0.221E-01  0.221E-01
   4.621  0.217E-01  0.217E-01
   4.631  0.213E-01  0.213E-01
   4.641  0.208E-01  0.208E-01
   4.651  0.202E-01  0.202E-01
   4.661  0.196E-01  0.196E-01
   4.671  0.190E-01  0.190E-01
   4.681  0.183E-01  0.183E-01
   4.691  0.176E-01  0.176E-01
   4.701  0.169E-01  0.169E-01
   4.711  0.162E-01  0.162E-01
   4.721  0.155E-01  0.155E-01
   4.731  0.149E-01  0.149E-01
   4.741  0.143E-01  0.143E-01
   4.751  0.137E-01  0.137E-01
   4.761  0.131E-01  0.131E-01
   4.771  0.126E-01  0.126E-01
   4.781  0.122E-01  0.122E-01
   4.791  0.117E-01  0.117E-01
   4.801  0.114E-01  0.114E-01
   4.811  0.111E-01  0.111E-01
   4.821  0.108E-01  0.108E-01
   4.831  0.105E-01  0.105E-01
   4.841  0.104E-01  0.104E-01
   4.851  0.102E-01  0.102E-01
   4.861  0.101E-01  0.101E-01
   4.871  0.101E-01  0.101E-01
   4.881  0.101E-01  0.101E-01
   4.891  0.102E-01  0.102E-01
   4.901  0.103E-01  0.103E-01
   4.911  0.105E-01  0.105E-01
   4.921  0.107E-01  0.107E-01
   4.931  0.109E-01  0.109E-01
   4.941  0.112E-01  0.112E-01
   4.951  0.115E-01  0.115E-01
   4.961  0.118E-01  0.118E-01
   4.971  0.121E-01  0.121E-01
   4.981  0.124E-01  0.124E-01
   4.991  0.127E-01  0.127E-01
   5.001  0.130E-01  0.130E-01
   5.011  0.132E-01  0.132E-01
   5.021  0.134E-01  0.134E-01
   5.031  0.135E-01  0.135E-01
   5.041  0.136E-01  0.136E-01
   5.051  0.136E-01  0.136E-01
   5.061  0.136E-01  0.136E-01
   5.071  0.135E-01  0.135E-01
   5.081  0.133E-01  0.133E-01
   5.091  0.130E-01  0.130E-01
   5.101  0.127E-01  0.127E-01
   5.111  0.123E-01  0.123E-01
   5.121  0.119E-01  0.119E-01
   5.131  0.114E-01  0.114E-01
   5.141  0.109E-01  0.109E-01
   5.151  0.104E-01  0.104E-01
   5.161  0.990E-02  0.990E-02
   5.171  0.936E-02  0.936E-02
   5.181  0.883E-02  0.883E-02
   5.191  0.832E-02  0.832E-02
   5.201  0.783E-02  0.783E-02
   5.211  0.736E-02  0.736E-02
   5.221  0.693E-02  0.693E-02
   5.231  0.653E-02  0.653E-02
   5.241  0.618E-02  0.618E-02
   5.251  0.586E-02  0.586E-02
   5.261  0.559E-02  0.559E-02
   5.271  0.535E-02  0.535E-02
   5.281  0.515E-02  0.515E-02
   5.291  0.499E-02  0.499E-02
   5.301  0.487E-02  0.487E-02
   5.311  0.477E-02  0.477E-02
   5.321  0.471E-02  0.471E-02
   5.331  0.467E-02  0.467E-02
   5.341  0.465E-02  0.465E-02
   5.351  0.464E-02  0.464E-02
   5.361  0.466E-02  0.466E-02
   5.371  0.469E-02  0.469E-02
   5.381  0.473E-02  0.473E-02
   5.391  0.478E-02  0.478E-02
   5.401  0.483E-02  0.483E-02
   5.411  0.489E-02  0.489E-02
   5.421  0.495E-02  0.495E-02
   5.431  0.502E-02  0.502E-02
   5.441  0.508E-02  0.508E-02
   5.451  0.513E-02  0.513E-02
   5.461  0.518E-02  0.518E-02
   5.471  0.522E-02  0.522E-02
   5.481  0.525E-02  0.525E-02
   5.491  0.527E-02  0.527E-02
   5.501  0.528E-02  0.528E-02
   5.511  0.526E-02  0.526E-02
   5.521  0.523E-02  0.523E-02
   5.531  0.519E-02  0.519E-02
   5.541  0.512E-02  0.512E-02
   5.551  0.503E-02  0.503E-02
   5.561  0.493E-02  0.493E-02
   5.571  0.481E-02  0.481E-02
   5.581  0.467E-02  0.467E-02
   5.591  0.452E-02  0.452E-02
   5.601  0.436E-02  0.436E-02
   5.611  0.419E-02  0.419E-02
   5.621  0.401E-02  0.401E-02
   5.631  0.383E-02  0.383E-02
   5.641  0.365E-02  0.365E-02
   5.651  0.347E-02  0.347E-02
   5.661  0.329E-02  0.329E-02
   5.671  0.312E-02  0.312E-02
   5.681  0.296E-02  0.296E-02
   5.691  0.280E-02  0.280E-02
   5.701  0.266E-02  0.266E-02
   5.711  0.253E-02  0.253E-02
   5.721  0.240E-02  0.240E-02
   5.731  0.229E-02  0.229E-02
   5.741  0.218E-02  0.218E-02
   5.751  0.208E-02  0.208E-02
   5.761  0.199E-02  0.199E-02
   5.771  0.191E-02  0.191E-02
   5.781  0.183E-02  0.183E-02
   5.791  0.176E-02  0.176E-02
   5.801  0.169E-02  0.169E-02
   5.811  0.163E-02  0.163E-02
   5.821  0.157E-02  0.157E-02
   5.831  0.152E-02  0.152E-02
   5.841  0.147E-02  0.147E-02
   5.851  0.142E-02  0.142E-02
   5.861  0.137E-02  0.137E-02
   5.871  0.133E-02  0.133E-02
   5.881  0.129E-02  0.129E-02
   5.891  0.126E-02  0.126E-02
   5.901  0.122E-02  0.122E-02
   5.911  0.119E-02  0.119E-02
   5.921  0.116E-02  0.116E-02
   5.931  0.113E-02  0.113E-02
   5.941  0.110E-02  0.110E-02
   5.951  0.106E-02  0.106E-02
   5.961  0.103E-02  0.103E-02
   5.971  0.998E-03  0.998E-03
   5.981  0.963E-03  0.963E-03
   5.991  0.926E-03  0.926E-03
   6.001  0.888E-03  0.888E-03
   6.011  0.848E-03  0.848E-03
   6.021  0.806E-03  0.806E-03
   6.031  0.763E-03  0.763E-03
   6.041  0.718E-03  0.718E-03
   6.051  0.672E-03  0.672E-03
   6.061  0.626E-03  0.626E-03
   6.071  0.579E-03  0.579E-03
   6.081  0.533E-03  0.533E-03
   6.091  0.487E-03  0.487E-03
   6.101  0.443E-03  0.443E-03
   6.111  0.400E-03  0.400E-03
   6.121  0.359E-03  0.359E-03
   6.131  0.319E-03  0.319E-03
   6.141  0.283E-03  0.283E-03
   6.151  0.248E-03  0.248E-03
   6.161  0.216E-03  0.216E-03
   6.171  0.187E-03  0.187E-03
   6.181  0.161E-03  0.161E-03
   6.191  0.137E-03  0.137E-03
   6.201  0.116E-03  0.116E-03
   6.211  0.970E-04  0.970E-04
   6.221  0.806E-04  0.806E-04
   6.231  0.664E-04  0.664E-04
   6.241  0.543E-04  0.543E-04
   6.251  0.439E-04  0.439E-04
   6.261  0.353E-04  0.353E-04
   6.271  0.280E-04  0.280E-04
   6.281  0.221E-04  0.221E-04
   6.291  0.172E-04  0.172E-04
   6.301  0.133E-04  0.133E-04
   6.311  0.102E-04  0.102E-04
   6.321  0.774E-05  0.774E-05
   6.331  0.581E-05  0.581E-05
   6.341  0.432E-05  0.432E-05
   6.351  0.318E-05  0.318E-05
   6.361  0.232E-05  0.232E-05
   6.371  0.167E-05  0.167E-05
   6.381  0.120E-05  0.120E-05
   6.391  0.847E-06  0.847E-06
   6.401  0.596E-06  0.596E-06
   6.411  0.420E-06  0.420E-06
   6.421  0.300E-06  0.300E-06
   6.431  0.224E-06  0.224E-06
   6.441  0.184E-06  0.184E-06
   6.451  0.179E-06  0.179E-06
   6.461  0.212E-06  0.212E-06
   6.471  0.290E-06  0.290E-06
   6.481  0.432E-06  0.432E-06
   6.491  0.666E-06  0.666E-06
   6.501  0.104E-05  0.104E-05
   6.511  0.161E-05  0.161E-05
   6.521  0.247E-05  0.247E-05
   6.531  0.377E-05  0.377E-05
   6.541  0.570E-05  0.570E-05
   6.551  0.851E-05  0.851E-05
   6.561  0.126E-04  0.126E-04
   6.571  0.184E-04  0.184E-04
   6.581  0.267E-04  0.267E-04
   6.591  0.383E-04  0.383E-04
   6.601  0.543E-04  0.543E-04
   6.611  0.762E-04  0.762E-04
   6.621  0.106E-03  0.106E-03
   6.631  0.146E-03  0.146E-03
   6.641  0.198E-03  0.198E-03
   6.651  0.267E-03  0.267E-03
   6.661  0.355E-03  0.355E-03
   6.671  0.469E-03  0.469E-03
   6.681  0.612E-03  0.612E-03
   6.691  0.791E-03  0.791E-03
   6.701  0.101E-02  0.101E-02
   6.711  0.128E-02  0.128E-02
   6.721  0.161E-02  0.161E-02
   6.731  0.199E-02  0.199E-02
   6.741  0.245E-02  0.245E-02
   6.751  0.298E-02  0.298E-02
   6.761  0.358E-02  0.358E-02
   6.771  0.427E-02  0.427E-02
   6.781  0.504E-02  0.504E-02
   6.791  0.590E-02  0.590E-02
   6.801  0.683E-02  0.683E-02
   6.811  0.784E-02  0.784E-02
   6.821  0.891E-02  0.891E-02
   6.831  0.100E-01  0.100E-01
   6.841  0.112E-01  0.112E-01
   6.851  0.124E-01  0.124E-01
   6.861  0.136E-01  0.136E-01
   6.871  0.148E-01  0.148E-01
   6.881  0.160E-01  0.160E-01
   6.891  0.172E-01  0.172E-01
   6.901  0.183E-01  0.183E-01
   6.911  0.194E-01  0.194E-01
   6.921  0.204E-01  0.204E-01
   6.931  0.214E-01  0.214E-01
   6.941  0.223E-01  0.223E-01
   6.951  0.232E-01  0.232E-01
   6.961  0.242E-01  0.242E-01
   6.971  0.251E-01  0.251E-01
   6.981  0.261E-01  0.261E-01
   6.991  0.271E-01  0.271E-01
   7.001  0.282E-01  0.282E-01
   7.011  0.294E-01  0.294E-01
   7.021  0.307E-01  0.307E-01
   7.031  0.321E-01  0.321E-01
   7.041  0.337E-01  0.337E-01
   7.051  0.354E-01  0.354E-01
   7.061  0.373E-01  0.373E-01
   7.071  0.392E-01  0.392E-01
   7.081  0.412E-01  0.412E-01
   7.091  0.433E-01  0.433E-01
   7.101  0.454E-01  0.454E-01
   7.111  0.475E-01  0.475E-01
   7.121  0.495E-01  0.495E-01
   7.131  0.514E-01  0.514E-01
   7.141  0.532E-01  0.532E-01
   7.151  0.549E-01  0.549E-01
   7.161  0.564E-01  0.564E-01
   7.171  0.577E-01  0.577E-01
   7.181  0.588E-01  0.588E-01
   7.191  0.597E-01  0.597E-01
   7.201  0.605E-01  0.605E-01
   7.211  0.611E-01  0.611E-01
   7.221  0.616E-01  0.616E-01
   7.231  0.619E-01  0.619E-01
   7.241  0.622E-01  0.622E-01
   7.251  0.624E-01  0.624E-01
   7.261  0.626E-01  0.626E-01
   7.271  0.627E-01  0.627E-01
   7.281  0.628E-01  0.628E-01
   7.291  0.629E-01  0.629E-01
   7.301  0.630E-01  0.630E-01
   7.311  0.630E-01  0.630E-01
   7.321  0.631E-01  0.631E-01
   7.331  0.630E-01  0.630E-01
   7.341  0.630E-01  0.630E-01
   7.351  0.629E-01  0.629E-01
   7.361  0.627E-01  0.627E-01
   7.371  0.625E-01  0.625E-01
   7.381  0.622E-01  0.622E-01
   7.391  0.620E-01  0.620E-01
   7.401  0.617E-01  0.617E-01
   7.411  0.614E-01  0.614E-01
   7.421  0.612E-01  0.612E-01
   7.431  0.610E-01  0.610E-01
   7.441  0.610E-01  0.610E-01
   7.451  0.611E-01  0.611E-01
   7.461  0.613E-01  0.613E-01
   7.471  0.618E-01  0.618E-01
   7.481  0.625E-01  0.625E-01
   7.491  0.634E-01  0.634E-01
   7.501  0.645E-01  0.645E-01
   7.511  0.660E-01  0.660E-01
   7.521  0.676E-01  0.676E-01
   7.531  0.695E-01  0.695E-01
   7.541  0.716E-01  0.716E-01
   7.551  0.738E-01  0.738E-01
   7.561  0.762E-01  0.762E-01
   7.571  0.787E-01  0.787E-01
   7.581  0.812E-01  0.812E-01
   7.591  0.837E-01  0.837E-01
   7.601  0.861E-01  0.861E-01
   7.611  0.884E-01  0.884E-01
   7.621  0.905E-01  0.905E-01
   7.631  0.924E-01  0.924E-01
   7.641  0.940E-01  0.940E-01
   7.651  0.952E-01  0.952E-01
   7.661  0.962E-01  0.962E-01
   7.671  0.967E-01  0.967E-01
   7.681  0.970E-01  0.970E-01
   7.691  0.969E-01  0.969E-01
   7.701  0.965E-01  0.965E-01
   7.711  0.958E-01  0.958E-01
   7.721  0.949E-01  0.949E-01
   7.731  0.939E-01  0.939E-01
   7.741  0.928E-01  0.928E-01
   7.751  0.917E-01  0.917E-01
   7.761  0.906E-01  0.906E-01
   7.771  0.897E-01  0.897E-01
   7.781  0.889E-01  0.889E-01
   7.791  0.884E-01  0.884E-01
   7.801  0.881E-01  0.881E-01
   7.811  0.882E-01  0.882E-01
   7.821  0.886E-01  0.886E-01
   7.831  0.893E-01  0.893E-01
   7.841  0.904E-01  0.904E-01
   7.851  0.918E-01  0.918E-01
   7.861  0.935E-01  0.935E-01
   7.871  0.955E-01  0.955E-01
   7.881  0.977E-01  0.977E-01
   7.891  0.100E+00  0.100E+00
   7.901  0.103E+00  0.103E+00
   7.911  0.105E+00  0.105E+00
   7.921  0.108E+00  0.108E+00
   7.931  0.111E+00  0.111E+00
   7.941  0.113E+00  0.113E+00
   7.951  0.116E+00  0.116E+00
   7.961  0.118E+00  0.118E+00
   7.971  0.120E+00  0.120E+00
   7.981  0.122E+00  0.122E+00
   7.991  0.124E+00  0.124E+00
   8.001  0.125E+00  0.125E+00
   8.011  0.127E+00  0.127E+00
   8.021  0.128E+00  0.128E+00
   8.031  0.129E+00  0.129E+00
   8.041  0.129E+00  0.129E+00
   8.051  0.130E+00  0.130E+00
   8.061  0.131E+00  0.131E+00
   8.071  0.132E+00  0.132E+00
   8.081  0.133E+00  0.133E+00
   8.091  0.134E+00  0.134E+00
   8.101  0.135E+00  0.135E+00
   8.111  0.136E+00  0.136E+00
   8.121  0.138E+00  0.138E+00
   8.131  0.140E+00  0.140E+00
   8.141  0.142E+00  0.142E+00
   8.151  0.144E+00  0.144E+00
   8.161  0.147E+00  0.147E+00
   8.171  0.150E+00  0.150E+00
   8.181  0.153E+00  0.153E+00
   8.191  0.155E+00  0.155E+00
   8.201  0.158E+00  0.158E+00
   8.211  0.161E+00  0.161E+00
   8.221  0.164E+00  0.164E+00
   8.231  0.167E+00  0.167E+00
   8.241  0.170E+00  0.170E+00
   8.251  0.172E+00  0.172E+00
   8.261  0.175E+00  0.175E+00
   8.271  0.177E+00  0.177E+00
   8.281  0.179E+00  0.179E+00
   8.291  0.181E+00  0.181E+00
   8.301  0.183E+00  0.183E+00
   8.311  0.185E+00  0.185E+00
   8.321  0.187E+00  0.187E+00
   8.331  0.189E+00  0.189E+00
   8.341  0.191E+00  0.191E+00
   8.351  0.193E+00  0.193E+00
   8.361  0.195E+00  0.195E+00
   8.371  0.197E+00  0.197E+00
   8.381  0.200E+00  0.200E+00
   8.391  0.202E+00  0.202E+00
   8.401  0.205E+00  0.205E+00
   8.411  0.208E+00  0.208E+00
   8.421  0.211E+00  0.211E+00
   8.431  0.214E+00  0.214E+00
   8.441  0.216E+00  0.216E+00
   8.451  0.219E+00  0.219E+00
   8.461  0.222E+00  0.222E+00
   8.471  0.225E+00  0.225E+00
   8.481  0.227E+00  0.227E+00
   8.491  0.229E+00  0.229E+00
   8.501  0.230E+00  0.230E+00
   8.511  0.231E+00  0.231E+00
   8.521  0.232E+00  0.232E+00
   8.531  0.232E+00  0.232E+00
   8.541  0.231E+00  0.231E+00
   8.551  0.230E+00  0.230E+00
   8.561  0.228E+00  0.228E+00
   8.571  0.226E+00  0.226E+00
   8.581  0.223E+00  0.223E+00
   8.591  0.220E+00  0.220E+00
   8.601  0.217E+00  0.217E+00
   8.611  0.213E+00  0.213E+00
   8.621  0.209E+00  0.209E+00
   8.631  0.206E+00  0.206E+00
   8.641  0.202E+00  0.202E+00
   8.651  0.199E+00  0.199E+00
   8.661  0.196E+00  0.196E+00
   8.671  0.193E+00  0.193E+00
   8.681  0.191E+00  0.191E+00
   8.691  0.189E+00  0.189E+00
   8.701  0.188E+00  0.188E+00
   8.711  0.187E+00  0.187E+00
   8.721  0.186E+00  0.186E+00
   8.731  0.186E+00  0.186E+00
   8.741  0.185E+00  0.185E+00
   8.751  0.186E+00  0.186E+00
   8.761  0.186E+00  0.186E+00
   8.771  0.186E+00  0.186E+00
   8.781  0.187E+00  0.187E+00
   8.791  0.187E+00  0.187E+00
   8.801  0.187E+00  0.187E+00
   8.811  0.187E+00  0.187E+00
   8.821  0.186E+00  0.186E+00
   8.831  0.185E+00  0.185E+00
   8.841  0.184E+00  0.184E+00
   8.851  0.183E+00  0.183E+00
   8.861  0.181E+00  0.181E+00
   8.871  0.179E+00  0.179E+00
   8.881  0.176E+00  0.176E+00
   8.891  0.173E+00  0.173E+00
   8.901  0.170E+00  0.170E+00
   8.911  0.167E+00  0.167E+00
   8.921  0.163E+00  0.163E+00
   8.931  0.160E+00  0.160E+00
   8.941  0.156E+00  0.156E+00
   8.951  0.152E+00  0.152E+00
   8.961  0.148E+00  0.148E+00
   8.971  0.145E+00  0.145E+00
   8.981  0.141E+00  0.141E+00
   8.991  0.138E+00  0.138E+00
   9.001  0.135E+00  0.135E+00
   9.011  0.132E+00  0.132E+00
   9.021  0.129E+00  0.129E+00
   9.031  0.127E+00  0.127E+00
   9.041  0.125E+00  0.125E+00
   9.051  0.123E+00  0.123E+00
   9.061  0.121E+00  0.121E+00
   9.071  0.120E+00  0.120E+00
   9.081  0.118E+00  0.118E+00
   9.091  0.117E+00  0.117E+00
   9.101  0.116E+00  0.116E+00
   9.111  0.115E+00  0.115E+00
   9.121  0.114E+00  0.114E+00
   9.131  0.113E+00  0.113E+00
   9.141  0.112E+00  0.112E+00
   9.151  0.111E+00  0.111E+00
   9.161  0.111E+00  0.111E+00
   9.171  0.110E+00  0.110E+00
   9.181  0.109E+00  0.109E+00
   9.191  0.109E+00  0.109E+00
   9.201  0.108E+00  0.108E+00
   9.211  0.108E+00  0.108E+00
   9.221  0.107E+00  0.107E+00
   9.231  0.106E+00  0.106E+00
   9.241  0.106E+00  0.106E+00
   9.251  0.105E+00  0.105E+00
   9.261  0.104E+00  0.104E+00
   9.271  0.104E+00  0.104E+00
   9.281  0.103E+00  0.103E+00
   9.291  0.102E+00  0.102E+00
   9.301  0.101E+00  0.101E+00
   9.311  0.100E+00  0.100E+00
   9.321  0.991E-01  0.991E-01
   9.331  0.981E-01  0.981E-01
   9.341  0.971E-01  0.971E-01
   9.351  0.961E-01  0.961E-01
   9.361  0.951E-01  0.951E-01
   9.371  0.942E-01  0.942E-01
   9.381  0.933E-01  0.933E-01
   9.391  0.924E-01  0.924E-01
   9.401  0.916E-01  0.916E-01
   9.411  0.908E-01  0.908E-01
   9.421  0.901E-01  0.901E-01
   9.431  0.895E-01  0.895E-01
   9.441  0.889E-01  0.889E-01
   9.451  0.884E-01  0.884E-01
   9.461  0.880E-01  0.880E-01
   9.471  0.876E-01  0.876E-01
   9.481  0.873E-01  0.873E-01
   9.491  0.871E-01  0.871E-01
   9.501  0.869E-01  0.869E-01
   9.511  0.869E-01  0.869E-01
   9.521  0.869E-01  0.869E-01
   9.531  0.870E-01  0.870E-01
   9.541  0.873E-01  0.873E-01
   9.551  0.877E-01  0.877E-01
   9.561  0.883E-01  0.883E-01
   9.571  0.891E-01  0.891E-01
   9.581  0.900E-01  0.900E-01
   9.591  0.912E-01  0.912E-01
   9.601  0.926E-01  0.926E-01
   9.611  0.942E-01  0.942E-01
   9.621  0.961E-01  0.961E-01
   9.631  0.981E-01  0.981E-01
   9.641  0.100E+00  0.100E+00
   9.651  0.103E+00  0.103E+00
   9.661  0.105E+00  0.105E+00
   9.671  0.107E+00  0.107E+00
   9.681  0.110E+00  0.110E+00
   9.691  0.112E+00  0.112E+00
   9.701  0.115E+00  0.115E+00
   9.711  0.117E+00  0.117E+00
   9.721  0.118E+00  0.118E+00
   9.731  0.120E+00  0.120E+00
   9.741  0.121E+00  0.121E+00
   9.751  0.122E+00  0.122E+00
   9.761  0.123E+00  0.123E+00
   9.771  0.123E+00  0.123E+00
   9.781  0.123E+00  0.123E+00
   9.791  0.123E+00  0.123E+00
   9.801  0.122E+00  0.122E+00
   9.811  0.121E+00  0.121E+00
   9.821  0.120E+00  0.120E+00
   9.831  0.118E+00  0.118E+00
   9.841  0.117E+00  0.117E+00
   9.851  0.115E+00  0.115E+00
   9.861  0.112E+00  0.112E+00
   9.871  0.110E+00  0.110E+00
   9.881  0.108E+00  0.108E+00
   9.891  0.105E+00  0.105E+00
   9.901  0.103E+00  0.103E+00
   9.911  0.100E+00  0.100E+00
   9.921  0.980E-01  0.980E-01
   9.931  0.957E-01  0.957E-01
   9.941  0.935E-01  0.935E-01
   9.951  0.914E-01  0.914E-01
   9.961  0.895E-01  0.895E-01
   9.971  0.879E-01  0.879E-01
   9.981  0.865E-01  0.865E-01
   9.991  0.854E-01  0.854E-01
  10.001  0.847E-01  0.847E-01
  10.011  0.843E-01  0.843E-01
  10.021  0.842E-01  0.842E-01
  10.031  0.846E-01  0.846E-01
  10.041  0.852E-01  0.852E-01
  10.051  0.862E-01  0.862E-01
  10.061  0.875E-01  0.875E-01
  10.071  0.891E-01  0.891E-01
  10.081  0.908E-01  0.908E-01
  10.091  0.926E-01  0.926E-01
  10.101  0.945E-01  0.945E-01
  10.111  0.964E-01  0.964E-01
  10.121  0.981E-01  0.981E-01
  10.131  0.997E-01  0.997E-01
  10.141  0.101E+00  0.101E+00
  10.151  0.102E+00  0.102E+00
  10.161  0.103E+00  0.103E+00
  10.171  0.103E+00  0.103E+00
  10.181  0.103E+00  0.103E+00
  10.191  0.103E+00  0.103E+00
  10.201  0.102E+00  0.102E+00
  10.211  0.101E+00  0.101E+00
  10.221  0.100E+00  0.100E+00
  10.231  0.988E-01  0.988E-01
  10.241  0.972E-01  0.972E-01
  10.251  0.956E-01  0.956E-01
  10.261  0.939E-01  0.939E-01
  10.271  0.923E-01  0.923E-01
  10.281  0.907E-01  0.907E-01
  10.291  0.892E-01  0.892E-01
  10.301  0.879E-01  0.879E-01
  10.311  0.866E-01  0.866E-01
  10.321  0.855E-01  0.855E-01
  10.331  0.846E-01  0.846E-01
  10.341  0.837E-01  0.837E-01
  10.351  0.830E-01  0.830E-01
  10.361  0.823E-01  0.823E-01
  10.371  0.817E-01  0.817E-01
  10.381  0.812E-01  0.812E-01
  10.391  0.806E-01  0.806E-01
  10.401  0.801E-01  0.801E-01
  10.411  0.795E-01  0.795E-01
  10.421  0.789E-01  0.789E-01
  10.431  0.783E-01  0.783E-01
  10.441  0.776E-01  0.776E-01
  10.451  0.769E-01  0.769E-01
  10.461  0.763E-01  0.763E-01
  10.471  0.756E-01  0.756E-01
  10.481  0.750E-01  0.750E-01
  10.491  0.744E-01  0.744E-01
  10.501  0.740E-01  0.740E-01
  10.511  0.736E-01  0.736E-01
  10.521  0.733E-01  0.733E-01
  10.531  0.731E-01  0.731E-01
  10.541  0.730E-01  0.730E-01
  10.551  0.730E-01  0.730E-01
  10.561  0.731E-01  0.731E-01
  10.571  0.732E-01  0.732E-01
  10.581  0.735E-01  0.735E-01
  10.591  0.737E-01  0.737E-01
  10.601  0.739E-01  0.739E-01
  10.611  0.741E-01  0.741E-01
  10.621  0.743E-01  0.743E-01
  10.631  0.744E-01  0.744E-01
  10.641  0.744E-01  0.744E-01
  10.651  0.742E-01  0.742E-01
  10.661  0.740E-01  0.740E-01
  10.671  0.737E-01  0.737E-01
  10.681  0.732E-01  0.732E-01
  10.691  0.727E-01  0.727E-01
  10.701  0.721E-01  0.721E-01
  10.711  0.715E-01  0.715E-01
  10.721  0.708E-01  0.708E-01
  10.731  0.702E-01  0.702E-01
  10.741  0.696E-01  0.696E-01
  10.751  0.691E-01  0.691E-01
  10.761  0.687E-01  0.687E-01
  10.771  0.684E-01  0.684E-01
  10.781  0.682E-01  0.682E-01
  10.791  0.682E-01  0.682E-01
  10.801  0.683E-01  0.683E-01
  10.811  0.685E-01  0.685E-01
  10.821  0.689E-01  0.689E-01
  10.831  0.695E-01  0.695E-01
  10.841  0.701E-01  0.701E-01
  10.851  0.709E-01  0.709E-01
  10.861  0.718E-01  0.718E-01
  10.871  0.728E-01  0.728E-01
  10.881  0.739E-01  0.739E-01
  10.891  0.750E-01  0.750E-01
  10.901  0.762E-01  0.762E-01
  10.911  0.775E-01  0.775E-01
  10.921  0.787E-01  0.787E-01
  10.931  0.800E-01  0.800E-01
  10.941  0.812E-01  0.812E-01
  10.951  0.824E-01  0.824E-01
  10.961  0.836E-01  0.836E-01
  10.971  0.848E-01  0.848E-01
  10.981  0.858E-01  0.858E-01
  10.991  0.868E-01  0.868E-01
  11.001  0.877E-01  0.877E-01
  11.011  0.885E-01  0.885E-01
  11.021  0.892E-01  0.892E-01
  11.031  0.898E-01  0.898E-01
  11.041  0.904E-01  0.904E-01
  11.051  0.909E-01  0.909E-01
  11.061  0.913E-01  0.913E-01
  11.071  0.917E-01  0.917E-01
  11.081  0.920E-01  0.920E-01
  11.091  0.924E-01  0.924E-01
  11.101  0.927E-01  0.927E-01
  11.111  0.929E-01  0.929E-01
  11.121  0.932E-01  0.932E-01
  11.131  0.935E-01  0.935E-01
  11.141  0.937E-01  0.937E-01
  11.151  0.939E-01  0.939E-01
  11.161  0.940E-01  0.940E-01
  11.171  0.940E-01  0.940E-01
  11.181  0.940E-01  0.940E-01
  11.191  0.938E-01  0.938E-01
  11.201  0.935E-01  0.935E-01
  11.211  0.931E-01  0.931E-01
  11.221  0.924E-01  0.924E-01
  11.231  0.916E-01  0.916E-01
  11.241  0.906E-01  0.906E-01
  11.251  0.894E-01  0.894E-01
  11.261  0.880E-01  0.880E-01
  11.271  0.865E-01  0.865E-01
  11.281  0.848E-01  0.848E-01
  11.291  0.831E-01  0.831E-01
  11.301  0.813E-01  0.813E-01
  11.311  0.794E-01  0.794E-01
  11.321  0.777E-01  0.777E-01
  11.331  0.759E-01  0.759E-01
  11.341  0.744E-01  0.744E-01
  11.351  0.730E-01  0.730E-01
  11.361  0.718E-01  0.718E-01
  11.371  0.709E-01  0.709E-01
  11.381  0.703E-01  0.703E-01
  11.391  0.699E-01  0.699E-01
  11.401  0.700E-01  0.700E-01
  11.411  0.703E-01  0.703E-01
  11.421  0.710E-01  0.710E-01
  11.431  0.719E-01  0.719E-01
  11.441  0.732E-01  0.732E-01
  11.451  0.746E-01  0.746E-01
  11.461  0.763E-01  0.763E-01
  11.471  0.782E-01  0.782E-01
  11.481  0.801E-01  0.801E-01
  11.491  0.820E-01  0.820E-01
  11.501  0.839E-01  0.839E-01
  11.511  0.858E-01  0.858E-01
  11.521  0.875E-01  0.875E-01
  11.531  0.890E-01  0.890E-01
  11.541  0.902E-01  0.902E-01
  11.551  0.912E-01  0.912E-01
  11.561  0.918E-01  0.918E-01
  11.571  0.921E-01  0.921E-01
  11.581  0.920E-01  0.920E-01
  11.591  0.916E-01  0.916E-01
  11.601  0.909E-01  0.909E-01
  11.611  0.898E-01  0.898E-01
  11.621  0.884E-01  0.884E-01
  11.631  0.868E-01  0.868E-01
  11.641  0.849E-01  0.849E-01
  11.651  0.828E-01  0.828E-01
  11.661  0.807E-01  0.807E-01
  11.671  0.784E-01  0.784E-01
  11.681  0.761E-01  0.761E-01
  11.691  0.739E-01  0.739E-01
  11.701  0.717E-01  0.717E-01
  11.711  0.697E-01  0.697E-01
  11.721  0.679E-01  0.679E-01
  11.731  0.663E-01  0.663E-01
  11.741  0.650E-01  0.650E-01
  11.751  0.640E-01  0.640E-01
  11.761  0.633E-01  0.633E-01
  11.771  0.629E-01  0.629E-01
  11.781  0.629E-01  0.629E-01
  11.791  0.633E-01  0.633E-01
  11.801  0.640E-01  0.640E-01
  11.811  0.650E-01  0.650E-01
  11.821  0.664E-01  0.664E-01
  11.831  0.680E-01  0.680E-01
  11.841  0.698E-01  0.698E-01
  11.851  0.717E-01  0.717E-01
  11.861  0.738E-01  0.738E-01
  11.871  0.758E-01  0.758E-01
  11.881  0.779E-01  0.779E-01
  11.891  0.798E-01  0.798E-01
  11.901  0.816E-01  0.816E-01
  11.911  0.831E-01  0.831E-01
  11.921  0.844E-01  0.844E-01
  11.931  0.853E-01  0.853E-01
  11.941  0.858E-01  0.858E-01
  11.951  0.860E-01  0.860E-01
  11.961  0.858E-01  0.858E-01
  11.971  0.853E-01  0.853E-01
  11.981  0.843E-01  0.843E-01
  11.991  0.831E-01  0.831E-01
  12.001  0.816E-01  0.816E-01
  12.011  0.799E-01  0.799E-01
  12.021  0.780E-01  0.780E-01
  12.031  0.760E-01  0.760E-01
  12.041  0.740E-01  0.740E-01
  12.051  0.719E-01  0.719E-01
  12.061  0.700E-01  0.700E-01
  12.071  0.681E-01  0.681E-01
  12.081  0.663E-01  0.663E-01
  12.091  0.648E-01  0.648E-01
  12.101  0.634E-01  0.634E-01
  12.111  0.621E-01  0.621E-01
  12.121  0.611E-01  0.611E-01
  12.131  0.603E-01  0.603E-01
  12.141  0.596E-01  0.596E-01
  12.151  0.590E-01  0.590E-01
  12.161  0.586E-01  0.586E-01
  12.171  0.583E-01  0.583E-01
  12.181  0.580E-01  0.580E-01
  12.191  0.578E-01  0.578E-01
  12.201  0.576E-01  0.576E-01
  12.211  0.575E-01  0.575E-01
  12.221  0.573E-01  0.573E-01
  12.231  0.571E-01  0.571E-01
  12.241  0.570E-01  0.570E-01
  12.251  0.568E-01  0.568E-01
  12.261  0.566E-01  0.566E-01
  12.271  0.565E-01  0.565E-01
  12.281  0.564E-01  0.564E-01
  12.291  0.563E-01  0.563E-01
  12.301  0.562E-01  0.562E-01
  12.311  0.562E-01  0.562E-01
  12.321  0.562E-01  0.562E-01
  12.331  0.563E-01  0.563E-01
  12.341  0.565E-01  0.565E-01
  12.351  0.568E-01  0.568E-01
  12.361  0.571E-01  0.571E-01
  12.371  0.575E-01  0.575E-01
  12.381  0.579E-01  0.579E-01
  12.391  0.583E-01  0.583E-01
  12.401  0.587E-01  0.587E-01
  12.411  0.592E-01  0.592E-01
  12.421  0.596E-01  0.596E-01
  12.431  0.600E-01  0.600E-01
  12.441  0.603E-01  0.603E-01
  12.451  0.605E-01  0.605E-01
  12.461  0.606E-01  0.606E-01
  12.471  0.606E-01  0.606E-01
  12.481  0.604E-01  0.604E-01
  12.491  0.602E-01  0.602E-01
  12.501  0.598E-01  0.598E-01
  12.511  0.592E-01  0.592E-01
  12.521  0.586E-01  0.586E-01
  12.531  0.578E-01  0.578E-01
  12.541  0.569E-01  0.569E-01
  12.551  0.560E-01  0.560E-01
  12.561  0.550E-01  0.550E-01
  12.571  0.540E-01  0.540E-01
  12.581  0.529E-01  0.529E-01
  12.591  0.519E-01  0.519E-01
  12.601  0.509E-01  0.509E-01
  12.611  0.500E-01  0.500E-01
  12.621  0.492E-01  0.492E-01
  12.631  0.485E-01  0.485E-01
  12.641  0.479E-01  0.479E-01
  12.651  0.475E-01  0.475E-01
  12.661  0.472E-01  0.472E-01
  12.671  0.471E-01  0.471E-01
  12.681  0.471E-01  0.471E-01
  12.691  0.473E-01  0.473E-01
  12.701  0.476E-01  0.476E-01
  12.711  0.480E-01  0.480E-01
  12.721  0.486E-01  0.486E-01
  12.731  0.492E-01  0.492E-01
  12.741  0.499E-01  0.499E-01
  12.751  0.507E-01  0.507E-01
  12.761  0.514E-01  0.514E-01
  12.771  0.521E-01  0.521E-01
  12.781  0.528E-01  0.528E-01
  12.791  0.534E-01  0.534E-01
  12.801  0.540E-01  0.540E-01
  12.811  0.544E-01  0.544E-01
  12.821  0.547E-01  0.547E-01
  12.831  0.548E-01  0.548E-01
  12.841  0.548E-01  0.548E-01
  12.851  0.547E-01  0.547E-01
  12.861  0.544E-01  0.544E-01
  12.871  0.539E-01  0.539E-01
  12.881  0.533E-01  0.533E-01
  12.891  0.526E-01  0.526E-01
  12.901  0.518E-01  0.518E-01
  12.911  0.508E-01  0.508E-01
  12.921  0.498E-01  0.498E-01
  12.931  0.487E-01  0.487E-01
  12.941  0.476E-01  0.476E-01
  12.951  0.464E-01  0.464E-01
  12.961  0.453E-01  0.453E-01
  12.971  0.441E-01  0.441E-01
  12.981  0.430E-01  0.430E-01
  12.991  0.419E-01  0.419E-01
  13.001  0.409E-01  0.409E-01
  13.011  0.400E-01  0.400E-01
  13.021  0.392E-01  0.392E-01
  13.031  0.385E-01  0.385E-01
  13.041  0.380E-01  0.380E-01
  13.051  0.375E-01  0.375E-01
  13.061  0.371E-01  0.371E-01
  13.071  0.369E-01  0.369E-01
  13.081  0.368E-01  0.368E-01
  13.091  0.368E-01  0.368E-01
  13.101  0.368E-01  0.368E-01
  13.111  0.370E-01  0.370E-01
  13.121  0.371E-01  0.371E-01
  13.131  0.373E-01  0.373E-01
  13.141  0.375E-01  0.375E-01
  13.151  0.377E-01  0.377E-01
  13.161  0.378E-01  0.378E-01
  13.171  0.378E-01  0.378E-01
  13.181  0.378E-01  0.378E-01
  13.191  0.376E-01  0.376E-01
  13.201  0.373E-01  0.373E-01
  13.211  0.369E-01  0.369E-01
  13.221  0.364E-01  0.364E-01
  13.231  0.358E-01  0.358E-01
  13.241  0.350E-01  0.350E-01
  13.251  0.342E-01  0.342E-01
  13.261  0.333E-01  0.333E-01
  13.271  0.323E-01  0.323E-01
  13.281  0.314E-01  0.314E-01
  13.291  0.304E-01  0.304E-01
  13.301  0.295E-01  0.295E-01
  13.311  0.287E-01  0.287E-01
  13.321  0.279E-01  0.279E-01
  13.331  0.273E-01  0.273E-01
  13.341  0.268E-01  0.268E-01
  13.351  0.264E-01  0.264E-01
  13.361  0.262E-01  0.262E-01
  13.371  0.261E-01  0.261E-01
  13.381  0.262E-01  0.262E-01
  13.391  0.263E-01  0.263E-01
  13.401  0.266E-01  0.266E-01
  13.411  0.270E-01  0.270E-01
  13.421  0.274E-01  0.274E-01
  13.431  0.279E-01  0.279E-01
  13.441  0.285E-01  0.285E-01
  13.451  0.290E-01  0.290E-01
  13.461  0.295E-01  0.295E-01
  13.471  0.301E-01  0.301E-01
  13.481  0.306E-01  0.306E-01
  13.491  0.310E-01  0.310E-01
  13.501  0.314E-01  0.314E-01
  13.511  0.318E-01  0.318E-01
  13.521  0.321E-01  0.321E-01
  13.531  0.324E-01  0.324E-01
  13.541  0.326E-01  0.326E-01
  13.551  0.327E-01  0.327E-01
  13.561  0.328E-01  0.328E-01
  13.571  0.328E-01  0.328E-01
  13.581  0.328E-01  0.328E-01
  13.591  0.327E-01  0.327E-01
  13.601  0.325E-01  0.325E-01
  13.611  0.323E-01  0.323E-01
  13.621  0.320E-01  0.320E-01
  13.631  0.316E-01  0.316E-01
  13.641  0.311E-01  0.311E-01
  13.651  0.306E-01  0.306E-01
  13.661  0.300E-01  0.300E-01
  13.671  0.294E-01  0.294E-01
  13.681  0.287E-01  0.287E-01
  13.691  0.280E-01  0.280E-01
  13.701  0.273E-01  0.273E-01
  13.711  0.265E-01  0.265E-01
  13.721  0.258E-01  0.258E-01
  13.731  0.251E-01  0.251E-01
  13.741  0.243E-01  0.243E-01
  13.751  0.237E-01  0.237E-01
  13.761  0.231E-01  0.231E-01
  13.771  0.225E-01  0.225E-01
  13.781  0.219E-01  0.219E-01
  13.791  0.215E-01  0.215E-01
  13.801  0.210E-01  0.210E-01
  13.811  0.207E-01  0.207E-01
  13.821  0.204E-01  0.204E-01
  13.831  0.201E-01  0.201E-01
  13.841  0.198E-01  0.198E-01
  13.851  0.196E-01  0.196E-01
  13.861  0.194E-01  0.194E-01
  13.871  0.193E-01  0.193E-01
  13.881  0.191E-01  0.191E-01
  13.891  0.190E-01  0.190E-01
  13.901  0.188E-01  0.188E-01
  13.911  0.187E-01  0.187E-01
  13.921  0.185E-01  0.185E-01
  13.931  0.184E-01  0.184E-01
  13.941  0.182E-01  0.182E-01
  13.951  0.180E-01  0.180E-01
  13.961  0.178E-01  0.178E-01
  13.971  0.176E-01  0.176E-01
  13.981  0.174E-01  0.174E-01
  13.991  0.172E-01  0.172E-01
  14.001  0.171E-01  0.171E-01
  14.011  0.169E-01  0.169E-01
  14.021  0.167E-01  0.167E-01
  14.031  0.165E-01  0.165E-01
  14.041  0.164E-01  0.164E-01
  14.051  0.163E-01  0.163E-01
  14.061  0.162E-01  0.162E-01
  14.071  0.161E-01  0.161E-01
  14.081  0.161E-01  0.161E-01
  14.091  0.161E-01  0.161E-01
  14.101  0.161E-01  0.161E-01
  14.111  0.161E-01  0.161E-01
  14.121  0.162E-01  0.162E-01
  14.131  0.162E-01  0.162E-01
  14.141  0.163E-01  0.163E-01
  14.151  0.164E-01  0.164E-01
  14.161  0.165E-01  0.165E-01
  14.171  0.165E-01  0.165E-01
  14.181  0.166E-01  0.166E-01
  14.191  0.166E-01  0.166E-01
  14.201  0.166E-01  0.166E-01
  14.211  0.165E-01  0.165E-01
  14.221  0.164E-01  0.164E-01
  14.231  0.162E-01  0.162E-01
  14.241  0.160E-01  0.160E-01
  14.251  0.157E-01  0.157E-01
  14.261  0.154E-01  0.154E-01
  14.271  0.151E-01  0.151E-01
  14.281  0.147E-01  0.147E-01
  14.291  0.143E-01  0.143E-01
  14.301  0.139E-01  0.139E-01
  14.311  0.135E-01  0.135E-01
  14.321  0.131E-01  0.131E-01
  14.331  0.127E-01  0.127E-01
  14.341  0.124E-01  0.124E-01
  14.351  0.122E-01  0.122E-01
  14.361  0.119E-01  0.119E-01
  14.371  0.118E-01  0.118E-01
  14.381  0.117E-01  0.117E-01
  14.391  0.117E-01  0.117E-01
  14.401  0.117E-01  0.117E-01
  14.411  0.118E-01  0.118E-01
  14.421  0.119E-01  0.119E-01
  14.431  0.121E-01  0.121E-01
  14.441  0.122E-01  0.122E-01
  14.451  0.124E-01  0.124E-01
  14.461  0.125E-01  0.125E-01
  14.471  0.126E-01  0.126E-01
  14.481  0.127E-01  0.127E-01
  14.491  0.127E-01  0.127E-01
  14.501  0.127E-01  0.127E-01
  14.511  0.126E-01  0.126E-01
  14.521  0.125E-01  0.125E-01
  14.531  0.123E-01  0.123E-01
  14.541  0.120E-01  0.120E-01
  14.551  0.117E-01  0.117E-01
  14.561  0.114E-01  0.114E-01
  14.571  0.109E-01  0.109E-01
  14.581  0.105E-01  0.105E-01
  14.591  0.100E-01  0.100E-01
  14.601  0.950E-02  0.950E-02
  14.611  0.898E-02  0.898E-02
  14.621  0.846E-02  0.846E-02
  14.631  0.794E-02  0.794E-02
  14.641  0.743E-02  0.743E-02
  14.651  0.693E-02  0.693E-02
  14.661  0.644E-02  0.644E-02
  14.671  0.597E-02  0.597E-02
  14.681  0.552E-02  0.552E-02
  14.691  0.510E-02  0.510E-02
  14.701  0.469E-02  0.469E-02
  14.711  0.431E-02  0.431E-02
  14.721  0.394E-02  0.394E-02
  14.731  0.361E-02  0.361E-02
  14.741  0.329E-02  0.329E-02
  14.751  0.300E-02  0.300E-02
  14.761  0.273E-02  0.273E-02
  14.771  0.249E-02  0.249E-02
  14.781  0.228E-02  0.228E-02
  14.791  0.210E-02  0.210E-02
  14.801  0.194E-02  0.194E-02
  14.811  0.182E-02  0.182E-02
  14.821  0.174E-02  0.174E-02
  14.831  0.168E-02  0.168E-02
  14.841  0.167E-02  0.167E-02
  14.851  0.168E-02  0.168E-02
  14.861  0.173E-02  0.173E-02
  14.871  0.181E-02  0.181E-02
  14.881  0.192E-02  0.192E-02
  14.891  0.205E-02  0.205E-02
  14.901  0.220E-02  0.220E-02
  14.911  0.237E-02  0.237E-02
  14.921  0.254E-02  0.254E-02
  14.931  0.272E-02  0.272E-02
  14.941  0.290E-02  0.290E-02
  14.951  0.306E-02  0.306E-02
  14.961  0.321E-02  0.321E-02
  14.971  0.333E-02  0.333E-02
  14.981  0.343E-02  0.343E-02
  14.991  0.350E-02  0.350E-02
  15.001  0.353E-02  0.353E-02
  15.011  0.353E-02  0.353E-02
  15.021  0.350E-02  0.350E-02
  15.031  0.343E-02  0.343E-02
  15.041  0.334E-02  0.334E-02
  15.051  0.322E-02  0.322E-02
  15.061  0.308E-02  0.308E-02
  15.071  0.292E-02  0.292E-02
  15.081  0.276E-02  0.276E-02
  15.091  0.259E-02  0.259E-02
  15.101  0.243E-02  0.243E-02
  15.111  0.227E-02  0.227E-02
  15.121  0.214E-02  0.214E-02
  15.131  0.202E-02  0.202E-02
  15.141  0.192E-02  0.192E-02
  15.151  0.185E-02  0.185E-02
  15.161  0.180E-02  0.180E-02
  15.171  0.178E-02  0.178E-02
  15.181  0.178E-02  0.178E-02
  15.191  0.181E-02  0.181E-02
  15.201  0.186E-02  0.186E-02
  15.211  0.193E-02  0.193E-02
  15.221  0.201E-02  0.201E-02
  15.231  0.211E-02  0.211E-02
  15.241  0.220E-02  0.220E-02
  15.251  0.230E-02  0.230E-02
  15.261  0.240E-02  0.240E-02
  15.271  0.249E-02  0.249E-02
  15.281  0.256E-02  0.256E-02
  15.291  0.263E-02  0.263E-02
  15.301  0.267E-02  0.267E-02
  15.311  0.270E-02  0.270E-02
  15.321  0.271E-02  0.271E-02
  15.331  0.269E-02  0.269E-02
  15.341  0.266E-02  0.266E-02
  15.351  0.261E-02  0.261E-02
  15.361  0.254E-02  0.254E-02
  15.371  0.245E-02  0.245E-02
  15.381  0.234E-02  0.234E-02
  15.391  0.223E-02  0.223E-02
  15.401  0.210E-02  0.210E-02
  15.411  0.196E-02  0.196E-02
  15.421  0.182E-02  0.182E-02
  15.431  0.167E-02  0.167E-02
  15.441  0.153E-02  0.153E-02
  15.451  0.138E-02  0.138E-02
  15.461  0.124E-02  0.124E-02
  15.471  0.111E-02  0.111E-02
  15.481  0.979E-03  0.979E-03
  15.491  0.857E-03  0.857E-03
  15.501  0.745E-03  0.745E-03
  15.511  0.642E-03  0.642E-03
  15.521  0.548E-03  0.548E-03
  15.531  0.464E-03  0.464E-03
  15.541  0.391E-03  0.391E-03
  15.551  0.326E-03  0.326E-03
  15.561  0.271E-03  0.271E-03
  15.571  0.224E-03  0.224E-03
  15.581  0.185E-03  0.185E-03
  15.591  0.153E-03  0.153E-03
  15.601  0.129E-03  0.129E-03
  15.611  0.111E-03  0.111E-03
  15.621  0.988E-04  0.988E-04
  15.631  0.922E-04  0.922E-04
  15.641  0.908E-04  0.908E-04
  15.651  0.943E-04  0.943E-04
  15.661  0.102E-03  0.102E-03
  15.671  0.115E-03  0.115E-03
  15.681  0.132E-03  0.132E-03
  15.691  0.154E-03  0.154E-03
  15.701  0.179E-03  0.179E-03
  15.711  0.208E-03  0.208E-03
  15.721  0.241E-03  0.241E-03
  15.731  0.276E-03  0.276E-03
  15.741  0.315E-03  0.315E-03
  15.751  0.355E-03  0.355E-03
  15.761  0.396E-03  0.396E-03
  15.771  0.437E-03  0.437E-03
  15.781  0.478E-03  0.478E-03
  15.791  0.518E-03  0.518E-03
  15.801  0.554E-03  0.554E-03
  15.811  0.587E-03  0.587E-03
  15.821  0.616E-03  0.616E-03
  15.831  0.640E-03  0.640E-03
  15.841  0.657E-03  0.657E-03
  15.851  0.668E-03  0.668E-03
  15.861  0.673E-03  0.673E-03
  15.871  0.671E-03  0.671E-03
  15.881  0.663E-03  0.663E-03
  15.891  0.650E-03  0.650E-03
  15.901  0.631E-03  0.631E-03
  15.911  0.607E-03  0.607E-03
  15.921  0.580E-03  0.580E-03
  15.931  0.551E-03  0.551E-03
  15.941  0.520E-03  0.520E-03
  15.951  0.488E-03  0.488E-03
  15.961  0.457E-03  0.457E-03
  15.971  0.426E-03  0.426E-03
  15.981  0.397E-03  0.397E-03
  15.991  0.370E-03  0.370E-03
  16.001  0.344E-03  0.344E-03
  16.011  0.321E-03  0.321E-03
  16.021  0.301E-03  0.301E-03
  16.031  0.282E-03  0.282E-03
  16.041  0.265E-03  0.265E-03
  16.051  0.250E-03  0.250E-03
  16.061  0.236E-03  0.236E-03
  16.071  0.223E-03  0.223E-03
  16.081  0.211E-03  0.211E-03
  16.091  0.198E-03  0.198E-03
  16.101  0.187E-03  0.187E-03
  16.111  0.175E-03  0.175E-03
  16.121  0.163E-03  0.163E-03
  16.131  0.151E-03  0.151E-03
  16.141  0.139E-03  0.139E-03
  16.151  0.126E-03  0.126E-03
  16.161  0.114E-03  0.114E-03
  16.171  0.103E-03  0.103E-03
  16.181  0.914E-04  0.914E-04
  16.191  0.805E-04  0.805E-04
  16.201  0.702E-04  0.702E-04
  16.211  0.607E-04  0.607E-04
  16.221  0.519E-04  0.519E-04
  16.231  0.439E-04  0.439E-04
  16.241  0.368E-04  0.368E-04
  16.251  0.305E-04  0.305E-04
  16.261  0.250E-04  0.250E-04
  16.271  0.203E-04  0.203E-04
  16.281  0.163E-04  0.163E-04
  16.291  0.130E-04  0.130E-04
  16.301  0.102E-04  0.102E-04
  16.311  0.793E-05  0.793E-05
  16.321  0.610E-05  0.610E-05
  16.331  0.465E-05  0.465E-05
  16.341  0.350E-05  0.350E-05
  16.351  0.261E-05  0.261E-05
  16.361  0.192E-05  0.192E-05
  16.371  0.140E-05  0.140E-05
  16.381  0.101E-05  0.101E-05
  16.391  0.721E-06  0.721E-06
  16.401  0.509E-06  0.509E-06
  16.411  0.356E-06  0.356E-06
  16.421  0.246E-06  0.246E-06
  16.431  0.168E-06  0.168E-06
  16.441  0.114E-06  0.114E-06
  16.451  0.759E-07  0.759E-07
  16.461  0.502E-07  0.502E-07
  16.471  0.329E-07  0.329E-07
  16.481  0.213E-07  0.213E-07
  16.491  0.136E-07  0.136E-07
